Projekt Aerodynamik Ãœbung CPM3
P_amb in [Pa]:  102415 T_amb in [K]: 297
Channel 1-3 HCL Druckdaten [V] 
2.956	3.120	3.197
2.962	3.120	3.221
2.965	3.115	3.255
2.970	3.126	3.275
2.972	3.125	3.279
2.970	3.119	3.268
2.975	3.118	3.255
2.972	3.123	3.230
2.975	3.121	3.200
2.971	3.120	3.172
2.970	3.121	3.152
2.975	3.117	3.142
2.973	3.121	3.154
2.976	3.117	3.167
2.970	3.115	3.181
2.973	3.118	3.215
2.972	3.129	3.241
2.970	3.128	3.247
2.977	3.123	3.257
2.977	3.125	3.291
2.977	3.125	3.313
2.982	3.125	3.300
2.983	3.121	3.256
2.979	3.118	3.217
2.973	3.124	3.199
2.972	3.118	3.196
2.962	3.120	3.215
2.956	3.118	3.225
2.963	3.111	3.213
2.965	3.119	3.206
2.968	3.114	3.203
2.965	3.118	3.195
2.965	3.123	3.194
2.963	3.116	3.211
2.963	3.119	3.229
2.967	3.115	3.250
2.955	3.117	3.248
2.956	3.115	3.230
2.950	3.117	3.210
2.948	3.118	3.202
2.956	3.111	3.200
2.953	3.111	3.216
2.966	3.110	3.223
2.965	3.113	3.230
2.972	3.118	3.212
2.977	3.112	3.218
2.973	3.112	3.237
2.967	3.120	3.251
2.977	3.120	3.267
2.968	3.113	3.272
2.965	3.120	3.255
2.973	3.111	3.234
2.982	3.113	3.230
2.980	3.119	3.225
2.985	3.122	3.228
2.981	3.117	3.218
2.978	3.121	3.208
2.980	3.120	3.212
2.982	3.113	3.215
2.982	3.118	3.211
2.983	3.126	3.206
2.984	3.125	3.224
2.985	3.118	3.235
2.994	3.128	3.245
3.003	3.126	3.250
2.988	3.127	3.255
2.994	3.124	3.262
3.002	3.130	3.255
3.000	3.127	3.263
2.990	3.126	3.248
2.985	3.128	3.230
2.982	3.122	3.233
2.980	3.123	3.245
2.976	3.123	3.251
2.970	3.126	3.246
2.962	3.125	3.230
2.970	3.125	3.229
2.979	3.125	3.240
2.985	3.127	3.277
2.985	3.121	3.298
2.989	3.127	3.315
2.988	3.125	3.316
2.986	3.128	3.311
2.987	3.125	3.311
2.987	3.121	3.284
2.985	3.125	3.276
2.984	3.123	3.272
2.987	3.123	3.256
2.987	3.124	3.240
2.989	3.120	3.213
2.998	3.126	3.196
3.005	3.120	3.189
3.007	3.125	3.195
3.007	3.125	3.218
3.002	3.125	3.259
3.014	3.125	3.277
3.009	3.115	3.269
3.014	3.123	3.240
3.004	3.125	3.230
3.008	3.125	3.213
3.008	3.126	3.206
3.015	3.123	3.171
3.009	3.121	3.172
3.014	3.115	3.171
3.007	3.120	3.170
3.004	3.115	3.177
3.009	3.123	3.191
3.012	3.121	3.209
3.009	3.125	3.260
3.015	3.125	3.278
3.020	3.123	3.296
3.019	3.125	3.292
3.014	3.125	3.280
3.009	3.131	3.272
3.004	3.122	3.248
3.001	3.118	3.218
3.000	3.118	3.214
2.995	3.126	3.218
2.992	3.123	3.223
2.997	3.125	3.212
3.002	3.122	3.229
3.014	3.125	3.267
3.014	3.118	3.264
3.024	3.128	3.255
3.028	3.126	3.250
3.032	3.131	3.220
3.026	3.124	3.211
3.022	3.126	3.223
3.022	3.123	3.233
3.021	3.125	3.239
3.011	3.125	3.226
3.012	3.126	3.218
3.005	3.123	3.205
2.993	3.125	3.189
3.004	3.124	3.184
3.002	3.123	3.180
3.012	3.119	3.171
3.014	3.121	3.176
3.007	3.126	3.192
3.009	3.119	3.210
3.010	3.114	3.240
3.017	3.120	3.253
3.021	3.122	3.231
3.021	3.121	3.216
3.019	3.120	3.210
3.014	3.125	3.219
3.010	3.121	3.230
3.009	3.121	3.241
3.002	3.120	3.258
3.005	3.116	3.248
3.011	3.112	3.243
3.007	3.124	3.231
3.002	3.119	3.238
3.002	3.118	3.243
3.008	3.117	3.242
3.009	3.119	3.250
3.010	3.115	3.245
3.007	3.115	3.229
3.007	3.118	3.233
3.002	3.118	3.229
2.996	3.115	3.226
2.997	3.120	3.215
2.990	3.118	3.206
2.997	3.121	3.204
2.989	3.119	3.205
2.985	3.119	3.203
2.989	3.123	3.176
2.994	3.116	3.174
2.992	3.122	3.176
2.994	3.118	3.198
3.002	3.122	3.198
2.995	3.121	3.213
2.994	3.116	3.220
3.005	3.121	3.223
3.005	3.124	3.212
3.007	3.124	3.223
3.005	3.123	3.214
3.004	3.124	3.196
3.007	3.123	3.203
2.997	3.118	3.204
2.995	3.126	3.181
2.988	3.123	3.161
2.982	3.115	3.157
2.979	3.117	3.167
2.982	3.113	3.184
2.982	3.115	3.199
2.987	3.119	3.238
2.982	3.115	3.258
2.985	3.119	3.265
2.990	3.115	3.265
2.995	3.112	3.238
2.991	3.113	3.232
2.988	3.111	3.233
2.992	3.115	3.211
3.000	3.116	3.194
2.999	3.110	3.176
2.994	3.111	3.167
2.994	3.113	3.188
2.997	3.115	3.203
3.007	3.117	3.213
3.015	3.122	3.250
3.018	3.117	3.269
3.019	3.121	3.276
3.011	3.115	3.281
3.011	3.118	3.284
3.004	3.119	3.284
3.005	3.113	3.282
3.004	3.125	3.302
3.010	3.112	3.292
3.003	3.118	3.276
3.009	3.118	3.267
3.012	3.115	3.260
3.007	3.119	3.262
3.007	3.121	3.266
3.006	3.120	3.266
3.009	3.118	3.264
3.009	3.115	3.242
3.007	3.121	3.201
3.001	3.118	3.184
2.989	3.121	3.196
2.990	3.120	3.213
2.997	3.123	3.219
3.000	3.118	3.231
2.999	3.116	3.236
3.004	3.124	3.274
2.999	3.126	3.291
3.002	3.119	3.274
2.995	3.121	3.235
2.998	3.123	3.210
2.999	3.123	3.194
3.004	3.122	3.176
3.000	3.123	3.189
2.994	3.124	3.190
3.002	3.124	3.178
3.007	3.120	3.179
3.002	3.121	3.195
3.004	3.121	3.203
3.010	3.122	3.193
3.007	3.117	3.200
3.009	3.123	3.224
3.008	3.123	3.231
3.004	3.123	3.218
3.012	3.123	3.199
3.002	3.123	3.177
3.002	3.122	3.152
3.004	3.125	3.166
2.992	3.123	3.171
2.995	3.125	3.177
2.999	3.125	3.204
3.002	3.118	3.210
3.002	3.129	3.220
3.010	3.120	3.232
3.007	3.125	3.238
3.006	3.126	3.248
3.007	3.117	3.240
2.995	3.123	3.216
2.994	3.116	3.200
2.985	3.125	3.200
2.982	3.125	3.204
2.982	3.126	3.210
2.985	3.124	3.220
2.991	3.124	3.248
2.995	3.125	3.259
2.997	3.125	3.269
2.995	3.125	3.281
2.988	3.126	3.308
2.990	3.118	3.323
3.000	3.123	3.316
2.989	3.123	3.283
2.997	3.121	3.272
2.984	3.123	3.278
2.989	3.121	3.272
2.985	3.123	3.250
2.984	3.122	3.258
2.982	3.124	3.272
2.983	3.124	3.292
2.985	3.121	3.297
2.982	3.123	3.317
2.980	3.121	3.333
2.982	3.118	3.325
2.977	3.118	3.310
2.982	3.124	3.306
2.986	3.123	3.304
2.985	3.121	3.296
2.987	3.119	3.279
2.997	3.125	3.279
2.992	3.119	3.272
2.992	3.121	3.242
2.995	3.126	3.216
2.990	3.118	3.189
2.984	3.126	3.183
2.987	3.123	3.185
2.981	3.123	3.210
2.987	3.121	3.230
2.994	3.120	3.235
2.999	3.123	3.247
2.999	3.125	3.257
2.987	3.119	3.280
2.985	3.120	3.284
2.987	3.119	3.293
2.986	3.120	3.274
2.984	3.125	3.264
2.979	3.121	3.252
2.992	3.126	3.259
2.994	3.126	3.259
2.997	3.125	3.255
2.990	3.125	3.257
2.994	3.125	3.264
2.993	3.128	3.265
2.991	3.126	3.288
2.990	3.129	3.311
2.989	3.130	3.309
2.987	3.126	3.298
2.984	3.121	3.291
2.983	3.120	3.290
2.980	3.121	3.279
2.982	3.123	3.244
2.983	3.120	3.230
2.973	3.122	3.228
2.978	3.116	3.238
2.987	3.123	3.227
2.989	3.126	3.205
2.989	3.122	3.193
2.992	3.127	3.182
2.989	3.116	3.181
2.989	3.122	3.188
2.982	3.123	3.174
2.991	3.124	3.161
2.992	3.118	3.155
2.985	3.125	3.162
2.984	3.123	3.176
2.977	3.126	3.191
2.977	3.126	3.222
2.978	3.118	3.247
2.977	3.126	3.249
2.975	3.126	3.249
2.980	3.126	3.253
2.983	3.128	3.248
2.992	3.125	3.247
2.992	3.126	3.250
2.995	3.126	3.257
2.992	3.126	3.250
2.991	3.125	3.235
2.982	3.126	3.211
2.972	3.115	3.193
2.973	3.118	3.188
2.965	3.118	3.173
2.972	3.125	3.157
2.982	3.126	3.162
2.983	3.118	3.172
2.982	3.126	3.171
2.982	3.123	3.164
2.977	3.120	3.169
2.985	3.123	3.174
2.986	3.116	3.165
2.992	3.123	3.159
2.982	3.123	3.152
2.992	3.125	3.153
2.990	3.122	3.153
2.994	3.124	3.135
2.989	3.113	3.115
2.985	3.121	3.073
2.987	3.112	3.065
2.983	3.121	3.064
2.977	3.118	3.092
2.979	3.121	3.088
2.980	3.118	3.093
2.982	3.112	3.104
2.980	3.120	3.132
2.985	3.115	3.153
2.982	3.113	3.135
2.985	3.121	3.115
2.992	3.118	3.111
2.995	3.116	3.109
2.990	3.115	3.125
2.987	3.118	3.123
2.993	3.118	3.118
2.987	3.116	3.108
2.987	3.113	3.095
2.982	3.113	3.072
2.977	3.118	3.041
2.970	3.126	3.047
2.967	3.123	3.069
2.966	3.122	3.091
2.968	3.117	3.108
2.972	3.117	3.128
2.977	3.123	3.133
2.974	3.120	3.135
2.975	3.120	3.132
2.978	3.118	3.140
2.973	3.118	3.147
2.975	3.126	3.173
2.977	3.126	3.157
2.982	3.118	3.144
2.977	3.123	3.147
2.980	3.118	3.157
2.979	3.121	3.169
2.977	3.117	3.181
2.975	3.118	3.182
2.967	3.115	3.177
2.968	3.113	3.169
2.962	3.113	3.161
2.962	3.113	3.149
2.965	3.116	3.156
2.970	3.120	3.161
2.970	3.120	3.162
2.970	3.115	3.147
2.977	3.121	3.128
2.971	3.119	3.088
2.974	3.116	3.088
2.973	3.121	3.117
2.980	3.118	3.137
2.980	3.115	3.188
2.982	3.118	3.208
2.975	3.116	3.195
2.972	3.120	3.174
2.977	3.116	3.171
2.966	3.110	3.186
2.957	3.116	3.196
2.943	3.114	3.179
2.955	3.115	3.180
2.955	3.111	3.174
2.963	3.111	3.184
2.962	3.115	3.184
2.965	3.116	3.186
2.972	3.116	3.181
2.971	3.109	3.177
2.963	3.112	3.151
2.955	3.118	3.138
2.955	3.115	3.125
2.960	3.113	3.132
2.960	3.118	3.133
2.963	3.110	3.111
2.957	3.110	3.098
2.958	3.109	3.083
2.953	3.110	3.086
2.949	3.116	3.123
2.952	3.116	3.136
2.955	3.118	3.132
2.953	3.118	3.139
2.953	3.121	3.133
2.947	3.113	3.132
2.944	3.118	3.138
2.943	3.109	3.154
2.936	3.112	3.166
2.945	3.111	3.172
2.948	3.113	3.143
2.952	3.114	3.130
2.960	3.115	3.125
2.958	3.120	3.141
2.965	3.112	3.162
2.970	3.108	3.189
2.965	3.113	3.213
2.968	3.110	3.260
2.966	3.113	3.286
2.972	3.108	3.281
2.970	3.118	3.257
2.967	3.115	3.247
2.968	3.113	3.236
2.967	3.116	3.227
2.979	3.116	3.233
2.977	3.116	3.237
2.967	3.113	3.231
2.966	3.112	3.211
2.956	3.115	3.204
2.965	3.113	3.184
2.962	3.108	3.167
2.958	3.111	3.156
2.956	3.115	3.157
2.975	3.122	3.186
2.982	3.121	3.218
2.979	3.116	3.238
2.979	3.113	3.235
2.977	3.113	3.227
2.970	3.114	3.220
2.977	3.120	3.218
2.973	3.113	3.218
2.977	3.117	3.231
2.970	3.113	3.238
2.963	3.112	3.235
2.960	3.114	3.244
2.958	3.107	3.243
2.972	3.113	3.255
2.977	3.112	3.265
2.967	3.113	3.260
2.975	3.123	3.269
2.967	3.119	3.271
2.965	3.110	3.268
2.962	3.113	3.269
2.967	3.115	3.277
2.960	3.116	3.269
2.961	3.117	3.248
2.953	3.116	3.234
2.955	3.127	3.223
2.958	3.110	3.213
2.965	3.107	3.220
2.966	3.123	3.230
2.961	3.126	3.244
2.955	3.118	3.255
2.957	3.115	3.265
2.956	3.113	3.281
2.952	3.117	3.299
2.950	3.113	3.296
2.958	3.120	3.296
2.962	3.118	3.279
2.970	3.115	3.258
2.972	3.111	3.262
2.962	3.106	3.263
2.963	3.110	3.252
2.964	3.111	3.239
2.968	3.108	3.225
2.969	3.118	3.233
2.961	3.112	3.247
2.952	3.113	3.245
2.956	3.113	3.251
2.955	3.115	3.270
2.970	3.118	3.271
2.975	3.113	3.279
2.977	3.114	3.291
2.974	3.101	3.301
2.978	3.108	3.308
2.973	3.108	3.311
2.965	3.108	3.301
2.955	3.106	3.277
2.955	3.111	3.260
2.950	3.108	3.234
2.943	3.109	3.227
2.942	3.108	3.240
2.952	3.111	3.244
2.953	3.109	3.230
2.960	3.108	3.238
2.970	3.109	3.248
2.975	3.108	3.245
2.977	3.113	3.220
2.970	3.108	3.205
2.968	3.111	3.186
2.971	3.112	3.194
2.966	3.106	3.191
2.967	3.115	3.188
2.965	3.108	3.189
2.960	3.110	3.193
2.956	3.111	3.186
2.955	3.110	3.181
2.955	3.108	3.201
2.955	3.111	3.203
2.953	3.106	3.214
2.958	3.113	3.223
2.965	3.110	3.230
2.962	3.108	3.218
2.965	3.106	3.181
2.960	3.108	3.155
2.965	3.106	3.140
2.958	3.107	3.135
2.956	3.118	3.142
2.944	3.107	3.137
2.945	3.116	3.128
2.940	3.105	3.142
2.943	3.108	3.169
2.943	3.112	3.209
2.950	3.111	3.230
2.953	3.112	3.230
2.953	3.110	3.232
2.951	3.114	3.229
2.944	3.121	3.220
2.948	3.113	3.209
2.940	3.106	3.199
2.947	3.105	3.195
2.948	3.107	3.193
2.943	3.099	3.196
2.953	3.103	3.197
2.950	3.106	3.170
2.951	3.096	3.143
2.953	3.103	3.123
2.950	3.106	3.122
2.953	3.105	3.121
2.950	3.105	3.132
2.953	3.105	3.175
2.950	3.109	3.194
2.953	3.111	3.210
2.956	3.108	3.220
2.948	3.102	3.220
2.949	3.106	3.207
2.948	3.113	3.195
2.945	3.108	3.179
2.950	3.108	3.173
2.955	3.109	3.151
2.963	3.110	3.123
2.962	3.111	3.132
2.960	3.106	3.148
2.963	3.108	3.167
2.964	3.106	3.191
2.964	3.108	3.183
2.970	3.107	3.172
2.970	3.106	3.145
2.970	3.106	3.147
2.968	3.108	3.165
2.966	3.108	3.169
2.970	3.106	3.162
2.968	3.111	3.148
2.970	3.103	3.149
2.981	3.108	3.161
2.982	3.109	3.156
2.985	3.101	3.145
2.982	3.103	3.137
2.982	3.101	3.138
2.987	3.106	3.140
2.984	3.103	3.142
2.980	3.106	3.179
2.984	3.105	3.199
2.982	3.101	3.202
2.982	3.105	3.185
2.972	3.101	3.165
2.972	3.106	3.154
2.972	3.098	3.157
2.969	3.103	3.166
2.957	3.100	3.159
2.960	3.097	3.140
2.959	3.097	3.162
2.956	3.101	3.193
2.955	3.098	3.210
2.960	3.106	3.220
2.962	3.111	3.229
2.965	3.100	3.232
2.969	3.105	3.224
2.967	3.106	3.211
2.967	3.109	3.211
2.960	3.109	3.205
2.965	3.107	3.195
2.963	3.107	3.189
2.966	3.103	3.178
2.968	3.110	3.176
2.969	3.106	3.184
2.965	3.103	3.180
2.960	3.110	3.196
2.965	3.101	3.207
2.968	3.103	3.199
2.965	3.106	3.201
2.975	3.105	3.210
2.970	3.112	3.208
2.971	3.110	3.212
2.974	3.111	3.236
2.964	3.104	3.250
2.965	3.111	3.265
2.960	3.106	3.272
2.966	3.103	3.291
2.972	3.106	3.311
2.975	3.106	3.323
2.973	3.106	3.342
2.971	3.108	3.328
2.972	3.103	3.310
2.977	3.106	3.298
2.980	3.106	3.298
2.974	3.107	3.292
2.970	3.110	3.288
2.970	3.106	3.297
2.963	3.108	3.306
2.970	3.108	3.327
2.980	3.105	3.323
2.977	3.106	3.299
2.982	3.105	3.299
2.982	3.108	3.299
2.977	3.106	3.287
2.978	3.105	3.284
2.974	3.109	3.294
2.979	3.104	3.303
2.983	3.105	3.279
2.982	3.113	3.262
2.979	3.113	3.247
2.982	3.104	3.237
2.982	3.106	3.230
2.985	3.113	3.215
2.990	3.108	3.203
2.991	3.110	3.199
2.986	3.111	3.201
2.987	3.105	3.216
2.982	3.108	3.250
2.982	3.112	3.275
2.982	3.116	3.287
2.985	3.109	3.296
2.982	3.116	3.295
2.985	3.120	3.292
2.975	3.119	3.281
2.978	3.112	3.248
2.980	3.116	3.235
2.982	3.115	3.250
2.991	3.113	3.267
2.992	3.113	3.267
2.990	3.109	3.258
2.989	3.105	3.241
2.998	3.109	3.220
2.984	3.108	3.228
2.975	3.118	3.228
2.977	3.112	3.231
2.977	3.113	3.238
2.968	3.118	3.253
2.975	3.111	3.250
2.983	3.118	3.274
2.987	3.118	3.302
2.993	3.118	3.320
2.994	3.118	3.325
2.982	3.121	3.304
2.989	3.119	3.272
2.990	3.109	3.247
2.987	3.110	3.226
2.992	3.123	3.214
2.980	3.123	3.225
2.985	3.122	3.230
2.985	3.118	3.243
2.988	3.117	3.258
2.988	3.118	3.288
2.997	3.125	3.301
2.992	3.123	3.293
2.994	3.121	3.301
2.981	3.122	3.299
2.983	3.122	3.299
2.990	3.120	3.305
2.983	3.125	3.303
2.981	3.121	3.284
2.984	3.126	3.260
2.989	3.125	3.255
2.989	3.123	3.258
2.982	3.118	3.274
2.985	3.110	3.291
2.986	3.123	3.331
2.990	3.124	3.362
2.985	3.120	3.384
2.989	3.117	3.384
2.988	3.125	3.375
2.992	3.116	3.371
2.992	3.123	3.370
2.995	3.125	3.342
2.991	3.118	3.329
2.989	3.124	3.319
2.987	3.123	3.330
2.985	3.120	3.330
2.983	3.123	3.315
2.996	3.123	3.294
2.997	3.127	3.269
2.992	3.122	3.261
2.989	3.121	3.264
2.991	3.116	3.248
2.989	3.120	3.250
2.997	3.124	3.259
3.002	3.120	3.272
2.994	3.125	3.281
2.997	3.120	3.291
3.009	3.123	3.311
3.011	3.123	3.324
3.009	3.126	3.333
3.011	3.119	3.336
3.004	3.121	3.310
3.002	3.118	3.289
2.992	3.121	3.292
2.991	3.118	3.278
2.999	3.124	3.242
2.997	3.122	3.243
2.997	3.125	3.247
2.992	3.123	3.228
2.990	3.123	3.206
2.987	3.123	3.177
2.987	3.123	3.162
2.984	3.121	3.169
2.985	3.119	3.186
2.990	3.111	3.206
2.992	3.118	3.206
2.997	3.118	3.209
2.993	3.123	3.213
2.997	3.123	3.219
2.989	3.127	3.206
2.992	3.122	3.197
2.995	3.122	3.181
2.991	3.121	3.172
2.992	3.120	3.174
2.994	3.123	3.191
2.992	3.124	3.210
2.997	3.121	3.216
2.991	3.118	3.211
2.992	3.120	3.196
2.994	3.113	3.214
3.000	3.118	3.226
2.999	3.117	3.228
3.007	3.118	3.249
3.007	3.121	3.262
3.017	3.118	3.279
3.015	3.118	3.276
3.009	3.121	3.233
3.010	3.117	3.213
3.005	3.108	3.199
3.006	3.120	3.187
3.009	3.117	3.182
3.010	3.110	3.199
3.005	3.111	3.216
3.007	3.110	3.249
3.007	3.113	3.261
2.997	3.108	3.255
2.995	3.106	3.218
3.001	3.113	3.208
2.992	3.106	3.192
2.986	3.112	3.197
2.995	3.114	3.188
2.991	3.118	3.196
2.997	3.111	3.211
3.002	3.113	3.206
3.002	3.116	3.203
2.999	3.111	3.209
2.994	3.111	3.207
2.982	3.120	3.206
2.984	3.115	3.196
2.979	3.113	3.176
2.976	3.114	3.176
2.980	3.112	3.210
2.987	3.107	3.218
2.990	3.103	3.228
2.987	3.108	3.222
2.987	3.106	3.209
2.992	3.111	3.188
2.998	3.105	3.181
2.996	3.115	3.186
2.992	3.113	3.204
2.996	3.108	3.198
3.000	3.112	3.194
2.996	3.109	3.188
2.997	3.107	3.206
2.997	3.111	3.211
2.999	3.109	3.215
3.005	3.113	3.210
2.995	3.113	3.206
3.004	3.116	3.198
3.007	3.118	3.186
3.002	3.112	3.170
3.001	3.112	3.159
3.004	3.116	3.161
3.002	3.117	3.184
3.000	3.113	3.242
2.995	3.112	3.257
2.994	3.110	3.255
2.990	3.112	3.235
2.990	3.110	3.213
2.987	3.111	3.188
2.982	3.114	3.173
2.975	3.105	3.179
2.982	3.106	3.192
2.987	3.118	3.196
2.996	3.110	3.196
2.998	3.114	3.193
3.001	3.110	3.211
2.995	3.116	3.243
2.992	3.115	3.253
2.997	3.112	3.250
2.992	3.116	3.262
2.996	3.114	3.264
2.997	3.110	3.274
2.995	3.111	3.284
2.985	3.113	3.267
2.984	3.110	3.247
2.982	3.110	3.232
2.980	3.105	3.207
2.985	3.110	3.201
2.977	3.107	3.196
2.984	3.108	3.194
2.972	3.113	3.198
2.980	3.105	3.189
2.966	3.111	3.183
2.974	3.111	3.210
2.970	3.112	3.210
2.967	3.106	3.216
2.963	3.106	3.233
2.962	3.106	3.228
2.962	3.111	3.217
2.967	3.111	3.203
2.968	3.114	3.176
2.969	3.110	3.173
2.970	3.109	3.169
2.969	3.104	3.164
2.975	3.106	3.161
2.982	3.111	3.158
2.985	3.116	3.162
2.984	3.108	3.194
2.989	3.108	3.215
2.984	3.101	3.209
2.982	3.103	3.161
2.982	3.105	3.115
2.980	3.106	3.086
2.982	3.105	3.057
2.977	3.109	3.020
2.967	3.108	3.007
2.963	3.110	3.022
2.965	3.108	3.034
2.965	3.106	3.044
2.971	3.105	3.053
2.977	3.108	3.050
2.967	3.103	3.078
2.965	3.111	3.104
2.965	3.106	3.117
2.967	3.103	3.119
2.964	3.104	3.108
2.970	3.107	3.107
2.970	3.106	3.103
2.968	3.106	3.108
2.960	3.106	3.107
2.950	3.106	3.101
2.941	3.108	3.101
2.941	3.106	3.105
2.941	3.106	3.114
2.942	3.105	3.139
2.941	3.107	3.147
2.946	3.101	3.147
2.943	3.107	3.142
2.943	3.105	3.147
2.936	3.101	3.159
2.950	3.110	3.189
2.946	3.103	3.214
2.957	3.103	3.215
2.958	3.106	3.210
2.960	3.101	3.216
2.955	3.106	3.221
2.954	3.106	3.212
2.955	3.103	3.213
2.960	3.103	3.219
2.958	3.101	3.222
2.961	3.108	3.229
2.962	3.109	3.204
2.957	3.101	3.184
2.953	3.101	3.166
2.955	3.101	3.162
2.956	3.099	3.167
2.957	3.101	3.181
2.964	3.096	3.189
2.977	3.101	3.185
2.972	3.103	3.211
2.970	3.103	3.230
2.969	3.106	3.235
2.958	3.105	3.210
2.958	3.106	3.191
2.956	3.103	3.189
2.958	3.105	3.177
2.957	3.103	3.171
2.948	3.101	3.171
2.948	3.105	3.179
2.948	3.106	3.197
2.950	3.105	3.201
2.947	3.103	3.194
2.950	3.105	3.196
2.946	3.101	3.201
2.942	3.099	3.182
2.943	3.106	3.173
2.943	3.103	3.179
2.943	3.103	3.189
2.955	3.103	3.194
2.952	3.099	3.197
2.957	3.096	3.199
2.965	3.101	3.201
2.961	3.102	3.213
2.960	3.103	3.230
2.959	3.105	3.232
2.962	3.106	3.220
2.963	3.101	3.209
2.962	3.099	3.210
2.957	3.103	3.211
2.955	3.098	3.223
2.955	3.101	3.208
2.963	3.106	3.195
2.961	3.103	3.176
2.964	3.103	3.176
2.972	3.103	3.189
2.973	3.105	3.196
2.972	3.101	3.196
2.968	3.108	3.191
2.962	3.104	3.174
2.962	3.100	3.148
2.958	3.096	3.159
2.960	3.103	3.164
2.957	3.103	3.164
2.968	3.106	3.169
2.967	3.106	3.164
2.974	3.103	3.181
2.964	3.098	3.199
2.965	3.098	3.209
2.967	3.101	3.210
2.961	3.101	3.221
2.965	3.103	3.235
2.962	3.100	3.250
2.975	3.104	3.270
2.963	3.098	3.274
2.967	3.103	3.277
2.963	3.103	3.273
2.956	3.101	3.266
2.955	3.101	3.259
2.955	3.099	3.262
2.951	3.101	3.274
2.954	3.105	3.259
2.957	3.101	3.248
2.958	3.100	3.230
2.955	3.092	3.248
2.958	3.103	3.258
2.965	3.107	3.262
2.962	3.105	3.270
2.958	3.098	3.287
2.954	3.097	3.290
2.953	3.103	3.277
2.960	3.101	3.262
2.965	3.101	3.259
2.963	3.101	3.263
2.957	3.105	3.269
2.965	3.106	3.281
2.967	3.106	3.273
2.968	3.111	3.264
2.959	3.107	3.272
2.959	3.106	3.272
2.963	3.101	3.265
2.958	3.104	3.275
2.965	3.104	3.279
2.958	3.103	3.289
2.957	3.104	3.287
2.967	3.103	3.282
2.963	3.106	3.282
2.963	3.104	3.264
2.958	3.106	3.236
2.963	3.104	3.228
2.965	3.100	3.230
2.967	3.095	3.244
2.965	3.101	3.255
2.963	3.104	3.249
2.962	3.106	3.249
2.961	3.103	3.282
2.964	3.101	3.294
2.970	3.101	3.315
2.972	3.098	3.327
2.969	3.106	3.328
2.955	3.107	3.326
2.955	3.102	3.328
2.958	3.101	3.325
2.960	3.101	3.346
2.958	3.106	3.375
2.962	3.106	3.381
2.958	3.106	3.360
2.957	3.106	3.357
2.957	3.097	3.360
2.967	3.106	3.352
2.972	3.105	3.339
2.964	3.101	3.326
2.963	3.101	3.323
2.963	3.108	3.321
2.963	3.107	3.311
2.973	3.109	3.279
2.975	3.103	3.265
2.977	3.103	3.262
2.980	3.106	3.274
2.970	3.106	3.311
2.977	3.106	3.335
2.984	3.105	3.345
2.987	3.106	3.340
2.984	3.106	3.318
2.985	3.106	3.297
2.977	3.106	3.280
2.974	3.108	3.279
2.982	3.111	3.283
2.972	3.111	3.269
2.976	3.113	3.277
2.970	3.110	3.267
2.970	3.106	3.262
2.971	3.108	3.281
2.976	3.111	3.272
2.975	3.112	3.257
2.975	3.106	3.256
2.980	3.105	3.233
2.972	3.114	3.218
2.975	3.106	3.210
2.975	3.108	3.212
2.980	3.113	3.207
2.985	3.110	3.211
2.979	3.106	3.230
2.977	3.106	3.248
2.977	3.105	3.262
2.983	3.106	3.256
2.979	3.113	3.239
2.987	3.111	3.243
2.984	3.108	3.248
2.990	3.108	3.240
2.989	3.106	3.198
2.980	3.104	3.187
2.982	3.112	3.210
2.982	3.115	3.248
2.980	3.109	3.257
2.977	3.111	3.265
2.983	3.112	3.258
2.987	3.108	3.242
2.982	3.106	3.233
2.982	3.113	3.239
2.978	3.107	3.247
2.975	3.106	3.259
2.985	3.110	3.276
2.980	3.102	3.283
2.980	3.109	3.260
2.978	3.105	3.233
2.977	3.106	3.226
2.984	3.105	3.233
2.992	3.113	3.244
2.995	3.109	3.236
2.994	3.111	3.226
2.990	3.113	3.230
2.980	3.110	3.230
2.982	3.106	3.223
2.985	3.113	3.240
2.984	3.106	3.245
2.989	3.108	3.256
2.984	3.106	3.272
2.985	3.106	3.260
2.983	3.109	3.248
2.990	3.111	3.228
2.990	3.118	3.228
2.989	3.118	3.248
3.000	3.113	3.279
3.002	3.113	3.303
3.016	3.111	3.315
3.026	3.111	3.331
3.035	3.111	3.348
3.029	3.118	3.350
3.019	3.118	3.340
3.009	3.110	3.321
3.011	3.116	3.299
3.009	3.111	3.295
3.009	3.116	3.281
3.014	3.118	3.294
3.015	3.115	3.308
3.020	3.115	3.331
3.020	3.117	3.349
3.021	3.114	3.357
3.029	3.107	3.354
3.029	3.110	3.362
3.024	3.119	3.348
3.021	3.113	3.328
3.021	3.108	3.309
3.027	3.111	3.311
3.019	3.111	3.312
3.014	3.115	3.314
3.014	3.110	3.323
3.009	3.108	3.298
3.002	3.113	3.283
3.001	3.111	3.281
3.007	3.110	3.294
3.002	3.111	3.306
3.003	3.110	3.310
3.001	3.108	3.308
2.997	3.113	3.297
2.992	3.110	3.274
2.992	3.116	3.282
2.994	3.110	3.301
2.997	3.116	3.287
2.994	3.110	3.262
3.004	3.106	3.229
2.995	3.116	3.220
2.993	3.112	3.218
2.996	3.103	3.218
2.992	3.111	3.220
2.997	3.111	3.220
2.989	3.111	3.229
2.997	3.113	3.241
2.993	3.113	3.233
2.999	3.109	3.223
3.000	3.118	3.206
3.000	3.117	3.196
2.998	3.114	3.210
2.995	3.115	3.231
2.992	3.120	3.240
2.992	3.114	3.236
2.994	3.116	3.233
2.989	3.115	3.224
2.992	3.115	3.230
2.993	3.117	3.222
2.996	3.111	3.211
2.997	3.114	3.186
2.994	3.111	3.192
2.992	3.108	3.206
2.992	3.111	3.227
2.994	3.117	3.228
2.996	3.112	3.236
3.006	3.109	3.243
3.007	3.116	3.276
3.017	3.120	3.267
3.012	3.116	3.248
3.011	3.112	3.248
3.004	3.113	3.242
2.992	3.113	3.219
2.987	3.113	3.193
2.984	3.115	3.189
2.987	3.113	3.198
2.990	3.114	3.203
2.990	3.116	3.238
2.994	3.108	3.250
2.997	3.110	3.252
2.997	3.113	3.267
3.000	3.115	3.265
3.007	3.110	3.259
3.008	3.115	3.245
2.992	3.112	3.226
2.987	3.112	3.215
2.991	3.111	3.191
2.986	3.110	3.189
2.985	3.112	3.186
2.987	3.119	3.189
2.987	3.106	3.184
2.989	3.108	3.204
2.991	3.115	3.220
2.992	3.115	3.223
2.987	3.114	3.223
2.990	3.111	3.219
2.993	3.112	3.213
2.992	3.107	3.196
2.999	3.111	3.180
2.992	3.111	3.160
2.992	3.111	3.142
2.989	3.107	3.117
2.989	3.105	3.116
2.987	3.110	3.125
2.980	3.107	3.123
2.982	3.108	3.111
2.985	3.111	3.108
2.987	3.110	3.112
2.989	3.116	3.124
2.987	3.112	3.153
2.982	3.111	3.171
2.975	3.111	3.197
2.979	3.109	3.213
2.973	3.112	3.225
2.976	3.119	3.183
2.967	3.113	3.161
2.970	3.116	3.162
2.968	3.113	3.177
2.972	3.108	3.162
2.968	3.116	3.142
2.982	3.122	3.137
2.977	3.113	3.148
2.983	3.120	3.167
2.990	3.118	3.174
2.992	3.120	3.177
2.997	3.121	3.218
2.997	3.122	3.232
2.994	3.119	3.228
2.998	3.123	3.211
3.002	3.125	3.196
2.992	3.113	3.183
2.990	3.123	3.172
2.997	3.116	3.160
2.995	3.113	3.143
2.989	3.118	3.145
2.988	3.118	3.159
2.989	3.118	3.176
2.992	3.117	3.189
3.000	3.119	3.199
3.002	3.125	3.208
3.001	3.125	3.218
3.000	3.123	3.223
3.000	3.118	3.228
3.002	3.126	3.220
3.009	3.121	3.213
3.014	3.125	3.229
3.010	3.125	3.249
3.009	3.125	3.262
3.014	3.120	3.272
3.003	3.118	3.262
3.002	3.121	3.241
2.992	3.121	3.225
2.994	3.125	3.191
2.997	3.123	3.197
2.992	3.115	3.211
2.993	3.124	3.232
3.004	3.125	3.240
3.007	3.125	3.235
3.005	3.125	3.228
3.005	3.125	3.213
3.002	3.126	3.211
2.995	3.129	3.210
2.992	3.127	3.211
2.996	3.122	3.223
2.997	3.116	3.226
2.982	3.125	3.210
2.980	3.125	3.192
2.981	3.123	3.193
2.980	3.127	3.181
2.985	3.125	3.162
2.982	3.125	3.162
2.988	3.121	3.179
2.985	3.131	3.194
2.991	3.128	3.210
3.000	3.130	3.224
3.004	3.129	3.233
2.995	3.129	3.238
2.992	3.125	3.223
2.992	3.115	3.191
2.992	3.121	3.182
2.992	3.123	3.176
2.987	3.123	3.186
2.989	3.120	3.200
2.985	3.122	3.208
2.980	3.126	3.225
2.992	3.121	3.230
2.995	3.119	3.244
2.992	3.127	3.246
2.995	3.125	3.260
2.998	3.123	3.266
2.992	3.126	3.247
2.995	3.126	3.235
2.985	3.123	3.217
2.982	3.125	3.239
2.988	3.125	3.236
2.994	3.125	3.246
2.997	3.125	3.232
2.997	3.125	3.220
3.005	3.125	3.207
3.007	3.126	3.219
2.994	3.128	3.221
2.994	3.128	3.235
2.992	3.125	3.247
3.000	3.126	3.259
2.999	3.133	3.240
3.004	3.125	3.223
3.015	3.136	3.223
3.007	3.132	3.230
3.014	3.132	3.234
3.011	3.133	3.245
3.015	3.127	3.260
3.014	3.123	3.265
3.007	3.131	3.267
3.010	3.125	3.275
3.006	3.136	3.292
2.997	3.130	3.310
2.997	3.133	3.330
2.992	3.128	3.326
2.999	3.133	3.315
2.999	3.127	3.311
3.004	3.127	3.295
3.003	3.130	3.281
3.001	3.133	3.265
2.992	3.129	3.249
2.992	3.127	3.240
2.990	3.121	3.238
2.989	3.128	3.240
2.982	3.133	3.247
2.987	3.126	3.257
2.990	3.126	3.256
2.995	3.125	3.248
2.991	3.127	3.231
2.980	3.128	3.211
2.985	3.128	3.201
2.983	3.115	3.192
2.982	3.115	3.194
2.982	3.127	3.194
2.982	3.123	3.181
2.987	3.120	3.159
2.985	3.120	3.154
2.992	3.121	3.158
2.984	3.118	3.152
2.982	3.125	3.165
2.982	3.121	3.161
2.982	3.122	3.151
2.991	3.125	3.144
2.987	3.124	3.157
2.985	3.126	3.188
2.985	3.126	3.210
2.986	3.125	3.219
2.986	3.126	3.204
2.985	3.125	3.184
2.982	3.125	3.179
2.975	3.123	3.176
2.967	3.128	3.174
2.972	3.122	3.152
2.972	3.117	3.145
2.980	3.121	3.145
2.979	3.126	3.162
2.978	3.121	3.186
2.980	3.128	3.191
2.980	3.123	3.190
2.984	3.121	3.203
2.987	3.123	3.205
2.982	3.126	3.204
2.982	3.121	3.210
2.992	3.117	3.213
2.992	3.125	3.215
2.988	3.124	3.202
2.985	3.121	3.196
2.994	3.121	3.196
2.991	3.124	3.194
2.984	3.125	3.218
2.989	3.127	3.226
2.989	3.124	3.210
2.985	3.125	3.204
2.981	3.123	3.232
2.975	3.123	3.235
2.980	3.126	3.243
2.977	3.128	3.257
2.987	3.125	3.264
2.982	3.126	3.265
2.982	3.125	3.261
2.982	3.121	3.262
2.978	3.124	3.259
2.984	3.122	3.251
2.990	3.121	3.243
2.984	3.126	3.226
2.987	3.126	3.206
2.979	3.121	3.186
2.975	3.122	3.177
2.975	3.120	3.176
2.977	3.119	3.155
2.983	3.125	3.143
2.985	3.118	3.135
2.980	3.121	3.140
2.982	3.123	3.159
2.982	3.127	3.165
2.992	3.129	3.164
2.994	3.120	3.155
3.000	3.120	3.144
2.994	3.117	3.123
2.992	3.110	3.105
2.986	3.113	3.112
2.990	3.111	3.125
2.987	3.112	3.125
2.985	3.116	3.130
2.983	3.116	3.134
2.980	3.124	3.159
2.977	3.109	3.212
2.975	3.115	3.229
2.967	3.118	3.235
2.969	3.115	3.245
2.968	3.121	3.216
2.957	3.111	3.196
2.963	3.118	3.172
2.958	3.115	3.165
2.957	3.115	3.170
2.961	3.120	3.167
2.960	3.118	3.160
2.955	3.118	3.165
2.961	3.116	3.170
2.956	3.114	3.171
2.957	3.118	3.165
2.960	3.116	3.144
2.961	3.121	3.135
2.967	3.115	3.135
2.978	3.123	3.139
2.982	3.115	3.155
2.982	3.112	3.147
2.981	3.115	3.137
2.975	3.113	3.129
2.966	3.111	3.144
2.960	3.113	3.155
2.958	3.113	3.145
2.963	3.110	3.128
2.963	3.112	3.117
2.963	3.116	3.134
2.960	3.117	3.140
2.960	3.118	3.140
2.961	3.121	3.145
2.962	3.120	3.164
2.968	3.115	3.189
2.960	3.115	3.191
2.962	3.116	3.188
2.967	3.119	3.184
2.968	3.115	3.200
2.970	3.107	3.230
2.960	3.113	3.222
2.964	3.115	3.206
2.962	3.119	3.183
2.965	3.121	3.147
2.955	3.118	3.128
2.958	3.111	3.120
2.958	3.120	3.140
2.955	3.118	3.151
2.948	3.113	3.142
2.954	3.115	3.142
2.941	3.112	3.142
2.947	3.116	3.169
2.951	3.124	3.189
2.953	3.109	3.196
2.955	3.111	3.184
2.960	3.113	3.171
2.955	3.113	3.155
2.948	3.121	3.164
2.939	3.113	3.189
2.937	3.108	3.222
2.938	3.106	3.223
2.940	3.109	3.222
2.933	3.104	3.233
2.931	3.103	3.248
2.933	3.108	3.230
2.933	3.106	3.213
2.936	3.111	3.199
2.936	3.109	3.195
2.934	3.106	3.186
2.939	3.105	3.177
2.936	3.111	3.183
2.936	3.115	3.187
2.938	3.111	3.188
2.936	3.110	3.187
2.937	3.109	3.176
2.935	3.119	3.181
2.938	3.120	3.189
2.956	3.120	3.199
2.960	3.117	3.198
2.968	3.113	3.207
2.965	3.110	3.194
2.965	3.113	3.186
2.962	3.110	3.176
2.962	3.115	3.177
2.963	3.106	3.186
2.963	3.115	3.184
2.961	3.109	3.164
2.965	3.113	3.127
2.967	3.115	3.131
2.967	3.115	3.140
2.970	3.109	3.158
2.967	3.113	3.185
2.971	3.116	3.196
2.977	3.112	3.197
2.985	3.108	3.176
2.983	3.106	3.180
2.985	3.106	3.198
2.987	3.110	3.221
2.987	3.107	3.230
2.985	3.113	3.235
2.970	3.105	3.231
2.967	3.110	3.220
2.967	3.112	3.218
2.967	3.116	3.206
2.968	3.114	3.196
2.973	3.105	3.205
2.975	3.112	3.223
2.975	3.118	3.239
2.981	3.111	3.248
2.987	3.113	3.248
2.982	3.118	3.241
2.985	3.119	3.222
2.985	3.113	3.220
2.985	3.118	3.210
2.979	3.115	3.213
2.982	3.119	3.230
2.980	3.115	3.245
2.983	3.109	3.256
2.979	3.120	3.270
2.988	3.111	3.264
2.985	3.111	3.239
2.987	3.113	3.238
2.988	3.118	3.248
2.982	3.114	3.247
2.977	3.109	3.240
2.972	3.118	3.230
2.983	3.116	3.211
2.982	3.113	3.199
2.979	3.113	3.215
2.977	3.111	3.225
2.982	3.108	3.221
2.970	3.114	3.217
2.975	3.118	3.216
2.977	3.115	3.223
2.977	3.115	3.233
2.970	3.111	3.231
2.982	3.111	3.225
2.972	3.115	3.213
2.967	3.110	3.196
2.967	3.111	3.183
2.970	3.108	3.169
2.976	3.111	3.152
2.975	3.113	3.138
2.980	3.112	3.142
2.980	3.113	3.169
2.982	3.115	3.196
2.982	3.111	3.190
2.987	3.113	3.169
2.992	3.105	3.154
2.988	3.113	3.142
2.989	3.113	3.145
2.991	3.108	3.142
2.981	3.108	3.144
2.980	3.113	3.150
2.969	3.115	3.144
2.969	3.115	3.165
2.970	3.115	3.177
2.973	3.118	3.177
2.970	3.116	3.173
2.976	3.117	3.186
2.969	3.114	3.188
2.975	3.110	3.177
2.970	3.116	3.172
2.965	3.115	3.165
2.970	3.115	3.160
2.960	3.115	3.180
2.960	3.115	3.196
2.965	3.113	3.189
2.959	3.114	3.181
2.964	3.116	3.176
2.970	3.113	3.202
2.975	3.108	3.213
2.980	3.109	3.243
2.974	3.112	3.255
2.968	3.112	3.264
2.967	3.108	3.266
2.961	3.106	3.230
2.960	3.110	3.206
2.955	3.112	3.206
2.970	3.104	3.199
2.972	3.110	3.196
2.967	3.111	3.194
2.964	3.111	3.185
2.963	3.112	3.176
2.957	3.113	3.176
2.963	3.112	3.189
2.966	3.118	3.171
2.962	3.113	3.157
2.965	3.111	3.143
2.963	3.106	3.162
2.957	3.116	3.164
2.957	3.112	3.154
2.958	3.112	3.142
2.960	3.111	3.152
2.964	3.112	3.147
2.956	3.112	3.152
2.954	3.114	3.165
2.960	3.109	3.153
2.955	3.112	3.154
2.958	3.110	3.151
2.957	3.110	3.154
2.957	3.115	3.151
2.962	3.105	3.152
2.963	3.113	3.145
2.957	3.118	3.142
2.956	3.108	3.169
2.957	3.111	3.190
2.965	3.118	3.181
2.955	3.111	3.162
2.960	3.111	3.147
2.965	3.118	3.143
2.963	3.113	3.145
2.954	3.111	3.179
2.951	3.111	3.222
2.960	3.110	3.236
2.963	3.115	3.248
2.960	3.110	3.259
2.965	3.111	3.245
2.962	3.113	3.229
2.955	3.113	3.220
2.957	3.117	3.230
2.968	3.117	3.236
2.967	3.110	3.235
2.964	3.111	3.248
2.965	3.110	3.235
2.968	3.113	3.230
2.967	3.108	3.223
2.968	3.116	3.213
2.972	3.113	3.213
2.972	3.108	3.215
2.975	3.111	3.233
2.969	3.111	3.230
2.961	3.110	3.230
2.965	3.105	3.223
2.970	3.112	3.219
2.982	3.106	3.231
2.984	3.110	3.237
2.984	3.116	3.241
2.982	3.112	3.223
2.977	3.111	3.203
2.978	3.110	3.197
2.975	3.113	3.216
2.977	3.111	3.222
2.970	3.109	3.222
2.970	3.117	3.231
2.972	3.110	3.250
2.970	3.104	3.259
2.975	3.108	3.266
2.975	3.106	3.248
2.974	3.116	3.236
2.982	3.110	3.220
2.977	3.111	3.193
2.977	3.107	3.170
2.972	3.113	3.157
2.985	3.112	3.145
2.989	3.111	3.132
2.992	3.110	3.125
2.990	3.117	3.147
2.979	3.119	3.174
2.982	3.117	3.190
2.980	3.112	3.196
2.977	3.114	3.189
2.970	3.108	3.193
2.967	3.115	3.198
2.977	3.118	3.204
2.978	3.112	3.210
2.985	3.111	3.218
2.990	3.113	3.238
2.986	3.113	3.249
2.980	3.109	3.240
2.975	3.107	3.225
2.972	3.110	3.207
2.967	3.113	3.199
2.962	3.105	3.201
2.967	3.115	3.193
2.965	3.110	3.171
2.967	3.115	3.181
2.966	3.111	3.196
2.963	3.106	3.225
2.968	3.109	3.230
2.970	3.107	3.231
2.972	3.107	3.233
2.984	3.106	3.236
2.987	3.105	3.241
2.978	3.108	3.239
2.977	3.110	3.250
2.969	3.106	3.262
2.975	3.103	3.244
2.977	3.110	3.232
2.973	3.111	3.201
2.972	3.113	3.177
2.972	3.110	3.160
2.977	3.109	3.150
2.977	3.108	3.150
2.975	3.105	3.161
2.975	3.107	3.202
2.975	3.103	3.213
2.982	3.106	3.200
2.990	3.106	3.180
2.989	3.110	3.162
2.990	3.111	3.177
2.988	3.109	3.177
2.985	3.108	3.187
2.981	3.106	3.213
2.985	3.104	3.238
2.986	3.112	3.261
2.992	3.105	3.272
2.987	3.104	3.267
2.984	3.108	3.267
2.990	3.107	3.269
2.987	3.107	3.254
2.987	3.106	3.238
2.987	3.113	3.239
2.993	3.108	3.235
2.981	3.108	3.240
2.987	3.105	3.248
2.985	3.106	3.252
2.991	3.102	3.248
2.990	3.104	3.235
2.992	3.106	3.221
2.980	3.108	3.191
2.987	3.106	3.200
2.981	3.103	3.203
2.977	3.106	3.216
2.972	3.105	3.237
2.978	3.106	3.256
2.977	3.105	3.250
2.985	3.108	3.245
2.982	3.106	3.246
2.983	3.102	3.246
2.981	3.104	3.240
2.988	3.103	3.230
2.979	3.105	3.224
2.977	3.103	3.213
2.983	3.108	3.211
2.977	3.105	3.230
2.972	3.105	3.249
2.970	3.102	3.235
2.970	3.103	3.220
2.967	3.101	3.201
2.973	3.105	3.204
2.967	3.106	3.202
2.970	3.100	3.199
2.963	3.097	3.196
2.970	3.101	3.198
2.973	3.104	3.204
2.972	3.102	3.204
2.977	3.107	3.208
2.982	3.106	3.210
2.978	3.113	3.230
2.973	3.105	3.233
2.972	3.104	3.210
2.965	3.108	3.208
2.958	3.106	3.190
2.960	3.100	3.183
2.953	3.104	3.179
2.950	3.098	3.176
2.950	3.103	3.189
2.953	3.101	3.203
2.952	3.104	3.216
2.960	3.106	3.229
2.968	3.106	3.228
2.963	3.108	3.233
2.972	3.110	3.237
2.967	3.112	3.238
2.972	3.113	3.215
2.978	3.114	3.197
2.974	3.105	3.181
2.971	3.101	3.196
2.960	3.108	3.214
2.963	3.111	3.231
2.960	3.111	3.230
2.960	3.105	3.226
2.956	3.110	3.206
2.958	3.108	3.166
2.966	3.110	3.173
2.966	3.108	3.210
2.968	3.106	3.239
2.963	3.105	3.248
2.967	3.104	3.259
2.963	3.103	3.281
2.955	3.106	3.303
2.957	3.106	3.299
2.958	3.106	3.281
2.953	3.104	3.261
2.951	3.106	3.257
2.947	3.101	3.245
2.951	3.106	3.220
2.953	3.104	3.229
2.950	3.103	3.225
2.955	3.103	3.226
2.945	3.104	3.223
2.955	3.103	3.213
2.960	3.106	3.194
2.959	3.106	3.178
2.965	3.105	3.166
2.960	3.105	3.170
2.968	3.105	3.162
2.962	3.104	3.152
2.958	3.103	3.133
2.955	3.106	3.105
2.945	3.113	3.088
2.936	3.111	3.091
2.936	3.108	3.095
2.936	3.106	3.107
2.938	3.104	3.124
2.936	3.105	3.135
2.936	3.099	3.138
2.933	3.106	3.125
2.927	3.103	3.137
2.933	3.108	3.149
2.932	3.102	3.180
2.931	3.098	3.174
2.933	3.105	3.160
2.938	3.106	3.142
2.940	3.101	3.152
2.936	3.107	3.148
2.931	3.105	3.141
2.936	3.101	3.160
2.933	3.106	3.178
2.938	3.106	3.186
2.949	3.106	3.189
2.944	3.106	3.196
2.948	3.104	3.195
2.948	3.106	3.179
2.951	3.101	3.144
2.957	3.105	3.128
2.954	3.101	3.123
2.955	3.104	3.150
2.955	3.104	3.162
2.956	3.101	3.151
2.950	3.101	3.157
2.958	3.106	3.193
2.961	3.101	3.204
2.968	3.101	3.198
2.972	3.105	3.187
2.974	3.103	3.189
2.972	3.101	3.199
2.968	3.103	3.219
2.972	3.093	3.221
2.973	3.104	3.216
2.969	3.103	3.228
2.968	3.100	3.234
2.961	3.101	3.213
2.955	3.106	3.189
2.952	3.106	3.194
2.955	3.108	3.196
2.950	3.111	3.185
2.949	3.107	3.203
2.945	3.105	3.204
2.945	3.104	3.198
2.955	3.104	3.176
2.949	3.107	3.163
2.948	3.101	3.151
2.940	3.096	3.136
2.936	3.101	3.113
2.933	3.101	3.113
2.929	3.099	3.113
2.930	3.106	3.118
2.931	3.105	3.102
2.941	3.107	3.078
2.937	3.098	3.060
2.945	3.104	3.073
2.942	3.099	3.105
2.950	3.101	3.131
2.946	3.095	3.138
2.943	3.092	3.133
2.934	3.106	3.128
2.927	3.101	3.125
2.931	3.099	3.116
2.933	3.098	3.130
2.933	3.102	3.139
2.938	3.103	3.135
2.935	3.101	3.120
2.933	3.096	3.100
2.941	3.098	3.085
2.937	3.101	3.075
2.935	3.103	3.086
2.941	3.102	3.105
2.941	3.106	3.115
2.941	3.104	3.118
2.948	3.106	3.127
2.948	3.101	3.128
2.952	3.103	3.165
2.948	3.101	3.176
2.950	3.103	3.176
2.946	3.101	3.165
2.950	3.099	3.142
2.943	3.099	3.137
2.935	3.104	3.142
2.935	3.101	3.151
2.931	3.096	3.152
2.935	3.106	3.142
2.934	3.105	3.115
2.937	3.106	3.095
2.932	3.103	3.078
2.933	3.103	3.068
2.933	3.106	3.093
2.948	3.106	3.120
2.950	3.106	3.137
2.950	3.106	3.155
2.952	3.106	3.167
2.956	3.109	3.173
2.954	3.104	3.183
2.953	3.103	3.203
2.955	3.101	3.210
2.955	3.101	3.213
2.957	3.105	3.216
2.965	3.106	3.210
2.960	3.100	3.213
2.955	3.101	3.225
2.961	3.103	3.255
2.960	3.101	3.258
2.951	3.101	3.246
2.953	3.104	3.238
2.957	3.102	3.236
2.960	3.103	3.228
2.958	3.104	3.224
2.957	3.104	3.245
2.955	3.106	3.260
2.961	3.103	3.240
2.963	3.103	3.203
2.952	3.101	3.195
2.955	3.105	3.189
2.955	3.104	3.208
2.957	3.101	3.224
2.955	3.101	3.233
2.952	3.093	3.220
2.955	3.105	3.198
2.960	3.105	3.195
2.962	3.103	3.189
2.967	3.101	3.191
2.970	3.096	3.184
2.965	3.103	3.176
2.963	3.103	3.176
2.957	3.102	3.179
2.965	3.096	3.176
2.967	3.097	3.186
2.970	3.101	3.196
2.964	3.107	3.191
2.967	3.103	3.189
2.960	3.101	3.186
2.957	3.101	3.174
2.961	3.106	3.178
2.955	3.105	3.191
2.952	3.103	3.198
2.953	3.096	3.199
2.960	3.103	3.198
2.958	3.101	3.216
2.951	3.096	3.230
2.950	3.093	3.230
2.953	3.100	3.211
2.955	3.099	3.162
2.957	3.101	3.141
2.945	3.096	3.117
2.953	3.098	3.108
2.948	3.101	3.130
2.949	3.098	3.151
2.953	3.101	3.195
2.956	3.103	3.205
2.957	3.101	3.221
2.953	3.104	3.238
2.960	3.101	3.250
2.963	3.106	3.261
2.960	3.105	3.274
2.969	3.103	3.273
2.974	3.101	3.256
2.979	3.101	3.250
2.977	3.095	3.235
2.977	3.101	3.224
2.978	3.100	3.209
2.974	3.104	3.199
2.985	3.106	3.194
2.992	3.104	3.198
2.985	3.106	3.210
2.983	3.111	3.225
2.978	3.110	3.230
2.972	3.103	3.228
2.975	3.106	3.218
2.975	3.104	3.217
2.967	3.106	3.230
2.982	3.106	3.235
2.979	3.105	3.261
2.975	3.106	3.279
2.977	3.098	3.301
2.970	3.107	3.308
2.970	3.106	3.299
2.972	3.105	3.296
2.985	3.106	3.281
2.990	3.106	3.260
2.992	3.101	3.236
2.994	3.101	3.216
2.982	3.099	3.204
2.977	3.105	3.199
2.978	3.102	3.200
2.967	3.103	3.201
2.965	3.098	3.208
2.961	3.096	3.206
2.957	3.095	3.201
2.956	3.103	3.191
2.955	3.100	3.194
2.962	3.101	3.208
2.963	3.101	3.212
2.971	3.101	3.210
2.968	3.101	3.211
2.967	3.106	3.225
2.977	3.101	3.241
2.982	3.096	3.242
2.978	3.105	3.241
2.975	3.101	3.255
2.970	3.103	3.282
2.969	3.098	3.295
2.968	3.101	3.308
2.956	3.105	3.316
2.960	3.102	3.302
2.953	3.101	3.288
2.958	3.106	3.280
2.950	3.102	3.279
2.955	3.099	3.282
2.955	3.103	3.268
2.957	3.103	3.263
2.956	3.107	3.274
2.958	3.106	3.298
2.960	3.104	3.315
2.965	3.104	3.316
2.963	3.109	3.314
2.965	3.106	3.309
2.967	3.105	3.326
2.970	3.104	3.333
2.968	3.106	3.323
2.966	3.106	3.311
2.963	3.104	3.304
2.972	3.100	3.296
2.970	3.103	3.289
2.980	3.096	3.305
2.975	3.099	3.319
2.982	3.101	3.328
2.982	3.103	3.328
2.983	3.106	3.328
2.990	3.103	3.326
2.987	3.107	3.317
2.987	3.106	3.321
2.994	3.102	3.315
2.984	3.106	3.298
2.985	3.103	3.284
2.990	3.101	3.301
2.980	3.098	3.308
2.978	3.107	3.283
2.984	3.105	3.265
2.985	3.101	3.250
2.977	3.101	3.253
2.977	3.106	3.272
2.980	3.103	3.298
2.965	3.103	3.301
2.963	3.106	3.282
2.965	3.104	3.257
2.968	3.103	3.255
2.970	3.103	3.248
2.971	3.106	3.243
2.972	3.103	3.229
2.975	3.104	3.240
2.970	3.104	3.233
2.969	3.103	3.230
2.964	3.101	3.229
2.980	3.101	3.214
2.973	3.098	3.223
2.975	3.103	3.238
2.974	3.106	3.248
2.974	3.103	3.248
2.975	3.100	3.263
2.970	3.101	3.274
2.975	3.103	3.247
2.967	3.102	3.204
2.963	3.097	3.174
2.962	3.101	3.157
2.966	3.101	3.120
2.960	3.099	3.110
2.957	3.101	3.106
2.957	3.103	3.108
2.960	3.099	3.110
2.970	3.100	3.118
2.964	3.098	3.137
2.972	3.106	3.151
2.980	3.104	3.169
2.978	3.096	3.189
2.980	3.097	3.213
2.987	3.093	3.210
2.985	3.099	3.193
2.982	3.095	3.170
2.977	3.101	3.162
2.976	3.105	3.184
2.977	3.104	3.201
2.978	3.102	3.210
2.973	3.103	3.200
2.980	3.103	3.199
2.982	3.101	3.197
2.972	3.099	3.181
2.979	3.108	3.181
2.979	3.108	3.181
2.982	3.101	3.164
2.982	3.103	3.174
2.982	3.101	3.179
2.993	3.105	3.216
2.993	3.103	3.231
2.992	3.106	3.248
2.987	3.099	3.230
2.978	3.101	3.229
2.980	3.103	3.236
2.976	3.104	3.254
2.989	3.101	3.269
2.995	3.098	3.267
2.986	3.101	3.284
2.984	3.101	3.300
2.983	3.101	3.292
2.980	3.096	3.280
2.973	3.103	3.260
2.975	3.093	3.230
2.976	3.101	3.218
2.967	3.106	3.216
2.972	3.098	3.229
2.972	3.096	3.228
2.970	3.109	3.213
2.980	3.109	3.196
2.972	3.100	3.181
2.980	3.101	3.189
2.977	3.092	3.177
2.980	3.099	3.159
2.987	3.106	3.137
2.995	3.099	3.127
2.998	3.101	3.142
3.002	3.096	3.147
3.002	3.098	3.161
2.990	3.101	3.142
2.988	3.098	3.115
2.975	3.099	3.093
2.969	3.093	3.068
2.967	3.101	3.044
2.972	3.101	3.042
2.968	3.104	3.054
2.975	3.099	3.073
2.972	3.105	3.100
2.972	3.105	3.097
2.978	3.105	3.083
2.984	3.105	3.086
2.982	3.103	3.101
2.985	3.097	3.105
2.987	3.097	3.102
2.983	3.101	3.101
2.975	3.106	3.100
2.972	3.100	3.089
2.975	3.099	3.081
2.975	3.098	3.091
2.979	3.094	3.110
2.980	3.093	3.123
2.972	3.098	3.137
2.977	3.103	3.145
2.981	3.103	3.162
2.984	3.099	3.201
2.979	3.102	3.206
2.979	3.100	3.206
2.983	3.096	3.192
2.980	3.099	3.172
2.976	3.095	3.160
2.977	3.103	3.152
2.977	3.103	3.130
2.975	3.102	3.117
2.979	3.096	3.103
2.973	3.101	3.107
2.972	3.101	3.111
2.975	3.095	3.117
2.975	3.093	3.153
2.974	3.105	3.172
2.978	3.102	3.197
2.980	3.101	3.215
2.987	3.106	3.228
2.987	3.106	3.239
2.976	3.098	3.247
2.984	3.106	3.256
2.975	3.102	3.257
2.975	3.103	3.252
2.977	3.106	3.233
2.978	3.104	3.213
2.982	3.104	3.209
2.983	3.100	3.206
2.981	3.101	3.211
2.978	3.106	3.211
2.979	3.106	3.201
2.977	3.103	3.172
2.980	3.105	3.159
2.977	3.105	3.157
2.975	3.105	3.167
2.975	3.104	3.196
2.978	3.101	3.218
2.989	3.098	3.230
2.992	3.102	3.246
2.997	3.107	3.233
2.999	3.108	3.228
3.000	3.105	3.230
2.996	3.101	3.230
3.002	3.107	3.232
2.992	3.103	3.223
2.992	3.103	3.217
2.995	3.106	3.218
2.996	3.103	3.210
2.990	3.103	3.221
2.992	3.101	3.255
2.985	3.102	3.269
2.984	3.106	3.267
2.987	3.101	3.262
2.982	3.103	3.272
2.976	3.111	3.265
2.969	3.111	3.228
2.965	3.109	3.204
2.967	3.106	3.196
2.970	3.106	3.199
2.970	3.103	3.221
2.965	3.105	3.224
2.967	3.096	3.228
2.969	3.106	3.251
2.969	3.104	3.268
2.967	3.104	3.277
2.966	3.105	3.291
2.980	3.103	3.308
2.985	3.103	3.310
2.989	3.106	3.318
2.991	3.103	3.321
2.995	3.101	3.297
2.989	3.105	3.281
2.993	3.106	3.287
2.987	3.108	3.280
2.985	3.107	3.270
2.987	3.105	3.259
2.987	3.104	3.257
2.999	3.105	3.255
3.007	3.112	3.257
3.009	3.106	3.283
3.014	3.111	3.284
3.015	3.110	3.267
3.013	3.108	3.259
3.001	3.108	3.269
3.006	3.103	3.272
2.999	3.108	3.269
3.000	3.111	3.261
2.994	3.107	3.272
2.997	3.106	3.277
3.004	3.104	3.275
2.998	3.106	3.311
2.999	3.108	3.331
2.990	3.108	3.338
2.997	3.110	3.317
3.002	3.111	3.314
3.002	3.110	3.298
3.004	3.108	3.279
2.994	3.113	3.281
3.000	3.111	3.279
2.997	3.108	3.257
2.997	3.107	3.257
2.992	3.110	3.274
2.994	3.111	3.279
2.992	3.111	3.270
2.985	3.106	3.270
2.992	3.111	3.272
2.997	3.106	3.268
3.000	3.113	3.267
2.997	3.111	3.281
2.991	3.110	3.306
2.999	3.111	3.331
2.997	3.113	3.322
2.999	3.106	3.297
2.989	3.108	3.259
2.992	3.110	3.252
2.981	3.115	3.274
2.989	3.113	3.312
2.989	3.115	3.347
2.989	3.123	3.350
2.995	3.122	3.314
2.992	3.120	3.288
2.983	3.118	3.292
2.977	3.108	3.295
2.984	3.113	3.306
2.977	3.114	3.299
2.987	3.111	3.277
2.987	3.116	3.269
2.990	3.113	3.250
2.984	3.113	3.245
2.979	3.116	3.242
2.985	3.113	3.230
2.985	3.106	3.216
2.991	3.116	3.207
2.990	3.113	3.198
2.997	3.113	3.204
3.007	3.106	3.203
3.004	3.108	3.222
3.002	3.110	3.254
3.002	3.112	3.272
3.006	3.110	3.267
2.995	3.110	3.255
2.987	3.109	3.240
2.989	3.113	3.238
2.985	3.105	3.228
2.980	3.105	3.227
2.976	3.110	3.206
2.991	3.108	3.201
2.994	3.113	3.178
2.992	3.117	3.184
2.990	3.117	3.213
2.989	3.110	3.238
2.995	3.118	3.267
2.992	3.120	3.282
2.982	3.111	3.296
2.983	3.115	3.294
2.987	3.115	3.279
2.992	3.115	3.259
2.992	3.113	3.232
2.992	3.115	3.216
2.987	3.111	3.220
2.980	3.115	3.225
2.977	3.112	3.226
2.980	3.118	3.234
2.979	3.118	3.241
2.982	3.110	3.232
2.982	3.115	3.230
2.977	3.115	3.220
2.970	3.110	3.223
2.975	3.118	3.194
2.967	3.114	3.178
2.958	3.115	3.164
2.965	3.113	3.161
2.972	3.111	3.156
2.977	3.111	3.142
2.967	3.105	3.142
2.980	3.106	3.162
2.982	3.111	3.162
2.980	3.108	3.148
2.990	3.115	3.138
2.982	3.111	3.142
2.991	3.111	3.137
2.985	3.106	3.142
2.971	3.111	3.125
2.975	3.108	3.108
2.970	3.108	3.110
2.966	3.109	3.136
2.960	3.106	3.152
2.968	3.105	3.167
2.975	3.109	3.164
2.965	3.111	3.162
2.960	3.108	3.176
2.956	3.106	3.207
2.957	3.105	3.211
2.950	3.107	3.213
2.956	3.111	3.209
2.953	3.113	3.195
2.960	3.109	3.193
2.961	3.112	3.177
2.965	3.106	3.152
2.957	3.107	3.155
2.956	3.109	3.171
2.953	3.118	3.164
2.951	3.114	3.161
2.963	3.113	3.172
2.969	3.110	3.181
2.968	3.107	3.200
2.969	3.106	3.208
2.965	3.106	3.212
2.956	3.106	3.218
2.963	3.114	3.211
2.957	3.110	3.201
2.960	3.101	3.193
2.963	3.111	3.200
2.963	3.108	3.205
2.956	3.109	3.200
2.955	3.108	3.188
2.957	3.106	3.170
2.955	3.106	3.152
2.966	3.103	3.125
2.952	3.100	3.101
2.960	3.106	3.091
2.960	3.105	3.094
2.967	3.107	3.109
2.960	3.105	3.125
2.960	3.108	3.139
2.963	3.106	3.141
2.955	3.111	3.141
2.961	3.106	3.139
2.964	3.109	3.135
2.972	3.105	3.140
2.970	3.106	3.137
2.968	3.101	3.149
2.973	3.103	3.141
2.969	3.103	3.106
2.967	3.106	3.098
2.972	3.103	3.086
2.966	3.106	3.088
2.960	3.106	3.106
2.955	3.106	3.106
2.953	3.106	3.096
2.952	3.111	3.086
2.956	3.105	3.091
2.955	3.108	3.108
2.968	3.113	3.124
2.972	3.105	3.149
2.976	3.108	3.164
2.964	3.103	3.164
2.962	3.104	3.162
2.967	3.108	3.154
2.972	3.108	3.142
2.972	3.099	3.130
2.970	3.106	3.114
2.975	3.106	3.115
2.974	3.106	3.096
2.971	3.104	3.108
2.967	3.107	3.139
2.970	3.106	3.164
2.972	3.106	3.153
2.965	3.107	3.147
2.970	3.107	3.156
2.977	3.101	3.171
2.975	3.103	3.177
2.970	3.106	3.189
2.976	3.106	3.220
2.975	3.101	3.248
2.975	3.101	3.255
2.982	3.101	3.257
2.975	3.106	3.272
2.980	3.106	3.276
2.981	3.106	3.263
2.972	3.107	3.228
2.976	3.097	3.190
2.977	3.102	3.193
2.965	3.103	3.196
2.977	3.105	3.185
2.983	3.111	3.197
2.980	3.108	3.199
2.980	3.108	3.186
2.972	3.113	3.158
2.980	3.109	3.159
2.987	3.106	3.169
2.986	3.103	3.198
2.978	3.106	3.216
2.977	3.107	3.225
2.977	3.103	3.241
2.972	3.106	3.248
2.980	3.103	3.253
2.970	3.106	3.231
2.967	3.102	3.188
2.968	3.100	3.181
2.966	3.103	3.176
2.970	3.101	3.210
2.970	3.106	3.238
2.968	3.103	3.252
2.965	3.106	3.262
2.969	3.107	3.279
2.970	3.101	3.286
2.975	3.103	3.284
2.972	3.106	3.282
2.963	3.108	3.270
2.955	3.108	3.255
2.960	3.106	3.240
2.963	3.103	3.212
2.965	3.106	3.199
2.972	3.109	3.186
2.970	3.103	3.171
2.970	3.109	3.179
2.968	3.112	3.177
2.969	3.115	3.173
2.969	3.106	3.176
2.965	3.106	3.188
2.955	3.105	3.198
2.965	3.113	3.211
2.965	3.106	3.211
2.967	3.105	3.206
2.957	3.105	3.214
2.961	3.106	3.203
2.971	3.106	3.183
2.968	3.104	3.171
2.965	3.100	3.156
2.968	3.107	3.157
2.962	3.101	3.162
2.958	3.108	3.170
2.960	3.103	3.164
2.962	3.106	3.162
2.971	3.106	3.154
2.978	3.105	3.160
2.965	3.105	3.161
2.972	3.106	3.180
2.970	3.106	3.193
2.977	3.106	3.201
2.963	3.104	3.207
2.962	3.105	3.209
2.962	3.105	3.191
2.971	3.104	3.189
2.967	3.104	3.201
2.975	3.102	3.223
2.965	3.112	3.239
2.960	3.102	3.267
2.955	3.103	3.275
2.956	3.106	3.263
2.962	3.106	3.247
2.962	3.106	3.236
2.968	3.103	3.230
2.971	3.107	3.232
2.973	3.101	3.230
2.972	3.103	3.218
2.970	3.106	3.223
2.975	3.102	3.242
2.977	3.106	3.251
2.977	3.105	3.240
2.987	3.114	3.230
2.985	3.108	3.218
2.985	3.114	3.194
2.991	3.118	3.176
2.987	3.110	3.166
2.992	3.119	3.167
2.987	3.112	3.154
2.985	3.106	3.134
2.981	3.106	3.129
2.992	3.106	3.157
2.987	3.106	3.173
2.984	3.108	3.161
2.985	3.106	3.136
2.985	3.102	3.142
2.989	3.103	3.146
2.985	3.101	3.149
2.992	3.102	3.150
2.993	3.106	3.159
2.992	3.108	3.184
2.992	3.101	3.231
2.988	3.104	3.228
2.978	3.100	3.210
2.970	3.104	3.190
2.970	3.103	3.186
2.967	3.105	3.181
2.970	3.104	3.177
2.971	3.105	3.186
2.970	3.106	3.203
2.970	3.109	3.213
2.980	3.108	3.225
2.976	3.107	3.209
2.982	3.105	3.196
2.994	3.109	3.213
2.995	3.106	3.248
2.994	3.108	3.267
2.992	3.103	3.272
2.982	3.111	3.240
2.982	3.106	3.220
2.983	3.111	3.213
2.994	3.113	3.212
2.985	3.113	3.230
2.977	3.112	3.226
2.977	3.104	3.211
2.982	3.104	3.196
2.986	3.106	3.196
2.995	3.106	3.208
2.989	3.108	3.217
2.993	3.113	3.231
2.992	3.113	3.238
2.992	3.113	3.238
3.000	3.111	3.238
2.992	3.110	3.242
3.002	3.108	3.230
2.991	3.108	3.199
2.989	3.111	3.197
2.985	3.105	3.206
2.983	3.105	3.229
2.982	3.111	3.252
2.983	3.105	3.253
2.987	3.106	3.248
2.992	3.106	3.246
2.994	3.116	3.253
2.997	3.113	3.254
2.995	3.112	3.239
2.989	3.110	3.250
2.998	3.113	3.269
3.003	3.113	3.282
2.995	3.115	3.277
2.997	3.112	3.267
2.992	3.110	3.261
2.982	3.111	3.244
2.981	3.116	3.236
2.982	3.115	3.245
2.972	3.110	3.233
2.973	3.113	3.213
2.970	3.108	3.211
2.960	3.113	3.218
2.968	3.110	3.229
2.965	3.108	3.242
2.967	3.110	3.242
2.964	3.109	3.241
2.967	3.106	3.230
2.970	3.113	3.200
2.958	3.109	3.179
2.958	3.108	3.163
2.955	3.111	3.154
2.963	3.109	3.137
2.958	3.111	3.124
2.965	3.105	3.120
2.965	3.108	3.134
2.960	3.107	3.152
2.962	3.110	3.183
2.963	3.111	3.210
2.962	3.110	3.223
2.962	3.106	3.220
2.967	3.114	3.220
2.963	3.106	3.238
2.963	3.106	3.250
2.959	3.103	3.230
2.958	3.105	3.214
2.957	3.105	3.213
2.958	3.106	3.192
2.957	3.106	3.171
2.957	3.104	3.157
2.957	3.107	3.149
2.958	3.115	3.184
2.957	3.111	3.203
2.962	3.106	3.218
2.967	3.108	3.216
2.972	3.111	3.221
2.977	3.107	3.235
2.967	3.105	3.244
2.970	3.105	3.238
2.975	3.105	3.216
2.971	3.107	3.189
2.967	3.106	3.157
2.960	3.106	3.162
2.960	3.106	3.162
2.968	3.111	3.163
2.978	3.108	3.144
2.982	3.118	3.128
2.972	3.115	3.132
2.966	3.113	3.179
2.961	3.115	3.184
2.964	3.112	3.186
2.972	3.110	3.236
2.974	3.116	3.248
2.977	3.115	3.241
2.966	3.113	3.230
2.965	3.110	3.231
2.962	3.110	3.221
2.960	3.111	3.200
2.953	3.113	3.149
2.955	3.113	3.132
2.957	3.112	3.139
2.967	3.108	3.150
2.968	3.111	3.152
2.975	3.110	3.150
2.983	3.106	3.155
2.982	3.109	3.162
2.977	3.105	3.176
2.980	3.101	3.196
2.979	3.106	3.174
2.975	3.105	3.162
2.972	3.106	3.167
2.975	3.103	3.179
2.966	3.106	3.174
2.962	3.110	3.170
2.964	3.105	3.159
2.965	3.105	3.135
2.971	3.106	3.159
2.967	3.106	3.169
2.969	3.108	3.148
2.984	3.109	3.157
2.986	3.103	3.161
2.983	3.103	3.172
2.982	3.106	3.201
2.982	3.106	3.203
2.987	3.108	3.201
2.990	3.108	3.199
2.987	3.111	3.204
2.984	3.106	3.196
2.979	3.106	3.181
2.972	3.106	3.150
2.968	3.102	3.144
2.968	3.097	3.147
2.966	3.101	3.172
2.968	3.103	3.174
2.970	3.106	3.179
2.970	3.103	3.196
2.969	3.105	3.211
2.970	3.108	3.205
2.965	3.103	3.205
2.969	3.105	3.199
2.967	3.103	3.196
2.962	3.106	3.194
2.963	3.107	3.180
2.963	3.106	3.191
2.965	3.109	3.191
2.969	3.106	3.186
2.969	3.102	3.174
2.977	3.101	3.179
2.970	3.106	3.191
2.972	3.109	3.198
2.953	3.109	3.197
2.953	3.108	3.197
2.950	3.106	3.196
2.957	3.106	3.200
2.952	3.106	3.205
2.955	3.108	3.225
2.955	3.106	3.233
2.956	3.106	3.211
2.956	3.096	3.183
2.954	3.104	3.163
2.953	3.106	3.179
2.951	3.106	3.182
2.957	3.101	3.163
2.957	3.106	3.120
2.963	3.106	3.096
2.965	3.106	3.082
2.963	3.109	3.085
2.955	3.105	3.108
2.951	3.106	3.125
2.955	3.109	3.130
2.955	3.101	3.162
2.960	3.101	3.168
2.967	3.101	3.160
2.972	3.101	3.147
2.975	3.102	3.157
2.975	3.099	3.167
2.972	3.098	3.162
2.972	3.102	3.132
2.982	3.100	3.124
2.985	3.103	3.132
2.982	3.111	3.137
2.982	3.106	3.144
2.979	3.108	3.162
2.980	3.109	3.195
2.977	3.106	3.209
2.980	3.106	3.213
2.979	3.113	3.213
2.985	3.105	3.208
2.982	3.110	3.213
2.985	3.113	3.210
2.982	3.107	3.190
2.982	3.095	3.177
2.987	3.098	3.176
2.983	3.105	3.171
2.971	3.106	3.178
2.974	3.103	3.176
2.975	3.105	3.186
2.975	3.099	3.197
2.977	3.104	3.186
2.977	3.106	3.181
2.977	3.105	3.190
2.978	3.106	3.200
2.976	3.102	3.204
2.972	3.106	3.213
2.974	3.106	3.210
2.977	3.106	3.208
2.972	3.103	3.210
2.980	3.105	3.212
2.982	3.106	3.213
2.985	3.105	3.208
2.987	3.114	3.221
2.987	3.109	3.240
2.988	3.106	3.242
2.982	3.109	3.233
2.986	3.111	3.239
2.980	3.106	3.265
2.994	3.107	3.279
2.999	3.104	3.277
2.997	3.111	3.281
2.992	3.111	3.287
2.990	3.111	3.287
2.996	3.108	3.274
2.994	3.106	3.267
2.995	3.108	3.265
2.989	3.108	3.249
2.994	3.105	3.259
2.986	3.107	3.260
3.002	3.104	3.259
2.992	3.107	3.265
2.997	3.101	3.265
2.999	3.111	3.271
2.998	3.110	3.288
2.997	3.112	3.273
2.992	3.115	3.265
2.999	3.115	3.260
2.996	3.108	3.247
2.992	3.108	3.236
2.992	3.105	3.235
2.992	3.111	3.240
2.990	3.112	3.225
2.986	3.111	3.230
2.990	3.112	3.211
2.992	3.106	3.230
2.991	3.108	3.249
2.987	3.106	3.248
2.985	3.106	3.248
2.982	3.101	3.240
2.983	3.106	3.217
2.979	3.105	3.182
2.988	3.106	3.179
2.985	3.105	3.189
2.987	3.106	3.191
2.990	3.105	3.204
2.984	3.106	3.204
2.987	3.105	3.213
2.984	3.106	3.255
2.987	3.108	3.270
2.986	3.105	3.277
2.979	3.106	3.263
2.985	3.106	3.238
2.983	3.105	3.239
2.972	3.105	3.232
2.975	3.106	3.238
2.982	3.105	3.228
2.985	3.106	3.216
2.987	3.106	3.211
2.985	3.103	3.210
2.974	3.105	3.201
2.975	3.105	3.203
2.977	3.109	3.207
2.979	3.105	3.210
2.985	3.105	3.230
2.980	3.100	3.249
2.977	3.106	3.265
2.978	3.105	3.256
2.967	3.104	3.242
2.961	3.106	3.245
2.970	3.107	3.230
2.972	3.104	3.230
2.972	3.105	3.231
2.977	3.106	3.225
2.979	3.101	3.228
2.977	3.106	3.212
2.982	3.106	3.196
2.982	3.105	3.180
2.974	3.098	3.173
2.977	3.103	3.164
2.980	3.096	3.162
2.985	3.105	3.162
2.991	3.105	3.210
2.999	3.103	3.240
2.999	3.106	3.264
3.002	3.106	3.274
2.995	3.108	3.260
2.990	3.109	3.232
2.992	3.108	3.230
2.984	3.105	3.229
2.982	3.111	3.225
2.979	3.110	3.223
2.982	3.106	3.233
2.982	3.106	3.240
2.983	3.108	3.237
2.981	3.106	3.229
2.981	3.106	3.216
2.997	3.105	3.208
2.987	3.103	3.195
2.977	3.105	3.187
2.967	3.097	3.187
2.960	3.103	3.179
2.955	3.096	3.181
2.965	3.106	3.196
2.969	3.106	3.194
2.964	3.107	3.176
2.977	3.102	3.151
2.970	3.106	3.140
2.977	3.105	3.128
2.977	3.103	3.120
2.980	3.101	3.114
2.982	3.101	3.131
2.977	3.106	3.149
2.983	3.101	3.176
2.972	3.103	3.164
2.977	3.100	3.154
2.970	3.103	3.151
2.967	3.105	3.142
2.963	3.107	3.142
2.970	3.106	3.167
2.975	3.101	3.210
2.966	3.105	3.206
2.974	3.101	3.195
2.967	3.094	3.193
2.970	3.106	3.190
2.970	3.103	3.199
2.965	3.103	3.200
2.957	3.101	3.186
2.960	3.105	3.174
2.957	3.107	3.161
2.953	3.107	3.145
2.950	3.106	3.143
2.950	3.103	3.142
2.965	3.103	3.142
2.967	3.101	3.134
2.977	3.106	3.129
2.977	3.099	3.118
2.977	3.098	3.110
2.985	3.103	3.106
2.992	3.103	3.103
2.993	3.106	3.108
2.986	3.101	3.142
2.985	3.109	3.165
2.979	3.107	3.181
2.969	3.101	3.177
2.970	3.101	3.164
2.965	3.106	3.147
2.960	3.106	3.133
2.966	3.108	3.105
2.969	3.110	3.085
2.975	3.107	3.088
2.972	3.103	3.115
2.972	3.106	3.138
2.970	3.111	3.152
2.967	3.106	3.162
2.963	3.112	3.162
2.965	3.113	3.150
2.973	3.106	3.130
2.974	3.105	3.149
2.966	3.108	3.158
2.970	3.105	3.139
2.963	3.101	3.137
2.963	3.105	3.142
2.957	3.106	3.139
2.955	3.101	3.138
2.960	3.103	3.142
2.967	3.106	3.155
2.975	3.107	3.155
2.967	3.102	3.180
2.969	3.105	3.189
2.965	3.103	3.184
2.962	3.103	3.163
2.967	3.106	3.145
2.960	3.109	3.147
2.961	3.106	3.144
2.958	3.103	3.134
2.955	3.102	3.131
2.955	3.103	3.142
2.955	3.106	3.170
2.958	3.100	3.183
2.960	3.106	3.191
2.960	3.101	3.186
2.957	3.096	3.181
2.960	3.102	3.174
2.965	3.101	3.179
2.969	3.101	3.184
2.951	3.106	3.188
2.960	3.105	3.196
2.953	3.095	3.179
2.958	3.106	3.145
2.957	3.101	3.130
2.955	3.104	3.125
2.957	3.102	3.113
2.960	3.095	3.119
2.961	3.098	3.113
2.955	3.101	3.140
2.960	3.099	3.143
2.963	3.103	3.137
2.965	3.103	3.130
2.967	3.093	3.144
2.975	3.091	3.168
2.970	3.093	3.188
2.956	3.098	3.198
2.947	3.099	3.196
2.952	3.100	3.184
2.943	3.090	3.165
2.943	3.094	3.150
2.936	3.103	3.152
2.935	3.101	3.127
2.938	3.106	3.113
2.945	3.106	3.111
2.946	3.098	3.144
2.947	3.101	3.229
2.954	3.099	3.250
2.960	3.098	3.233
2.958	3.101	3.211
2.972	3.103	3.161
2.962	3.101	3.140
2.960	3.094	3.118
2.965	3.094	3.143
2.965	3.096	3.179
2.965	3.093	3.186
2.969	3.101	3.175
2.967	3.102	3.191
2.965	3.099	3.189
2.970	3.098	3.173
2.967	3.103	3.153
2.977	3.102	3.154
2.982	3.100	3.154
2.976	3.094	3.161
2.982	3.093	3.159
2.964	3.094	3.152
2.975	3.099	3.142
2.972	3.103	3.142
2.967	3.098	3.136
2.964	3.091	3.120
2.963	3.094	3.110
2.960	3.095	3.101
2.961	3.091	3.105
2.960	3.088	3.110
2.949	3.094	3.137
2.953	3.090	3.160
2.953	3.094	3.176
2.955	3.096	3.179
2.955	3.095	3.161
2.955	3.088	3.136
2.955	3.099	3.126
2.946	3.096	3.127
2.948	3.093	3.125
2.948	3.089	3.115
2.948	3.090	3.110
2.945	3.098	3.113
2.955	3.097	3.095
2.955	3.095	3.067
2.953	3.098	3.056
2.943	3.094	3.047
2.956	3.090	3.042
2.950	3.091	3.044
2.940	3.089	3.061
2.950	3.093	3.081
2.948	3.093	3.103
2.955	3.096	3.108
2.953	3.095	3.124
2.962	3.096	3.137
2.957	3.098	3.130
2.954	3.096	3.124
2.952	3.090	3.142
2.946	3.089	3.181
2.955	3.093	3.189
2.945	3.089	3.180
2.948	3.094	3.163
2.945	3.089	3.145
2.950	3.087	3.126
2.953	3.091	3.122
2.956	3.089	3.132
2.958	3.094	3.137
2.959	3.090	3.164
2.965	3.090	3.198
2.965	3.087	3.189
2.955	3.086	3.173
2.958	3.089	3.154
2.955	3.092	3.125
2.955	3.089	3.096
2.951	3.087	3.091
2.952	3.088	3.088
2.946	3.096	3.075
2.943	3.093	3.076
2.943	3.089	3.093
2.951	3.090	3.102
2.957	3.090	3.107
2.960	3.086	3.115
2.970	3.096	3.118
2.966	3.096	3.123
2.964	3.086	3.124
2.948	3.089	3.146
2.950	3.089	3.162
2.955	3.088	3.176
2.958	3.089	3.177
2.955	3.084	3.191
2.955	3.088	3.200
2.955	3.087	3.205
2.956	3.090	3.214
2.954	3.090	3.228
2.952	3.094	3.243
2.955	3.083	3.235
2.957	3.090	3.228
2.957	3.095	3.218
2.953	3.094	3.210
2.955	3.094	3.178
2.947	3.092	3.162
2.939	3.096	3.164
2.939	3.089	3.169
2.938	3.091	3.154
2.942	3.092	3.138
2.948	3.092	3.121
2.941	3.091	3.121
2.936	3.089	3.119
2.936	3.089	3.130
2.943	3.089	3.141
2.951	3.089	3.152
2.947	3.086	3.164
2.942	3.089	3.191
2.941	3.089	3.191
2.945	3.089	3.161
2.945	3.094	3.142
2.943	3.090	3.131
2.940	3.084	3.120
2.938	3.085	3.117
2.928	3.088	3.134
2.929	3.088	3.167
2.919	3.084	3.180
2.924	3.086	3.184
2.929	3.089	3.186
2.928	3.087	3.181
2.928	3.088	3.186
2.936	3.091	3.171
2.931	3.095	3.166
2.929	3.088	3.177
2.930	3.092	3.172
2.929	3.086	3.177
2.928	3.088	3.176
2.931	3.086	3.177
2.926	3.082	3.179
2.923	3.088	3.179
2.925	3.088	3.176
2.926	3.086	3.154
2.921	3.088	3.121
2.926	3.089	3.136
2.917	3.084	3.159
2.921	3.090	3.174
2.916	3.090	3.194
2.921	3.085	3.213
2.916	3.086	3.216
2.922	3.089	3.218
2.929	3.088	3.221
2.926	3.096	3.213
2.929	3.093	3.204
2.928	3.089	3.198
2.929	3.093	3.206
2.928	3.093	3.191
2.924	3.091	3.177
2.923	3.088	3.181
2.923	3.091	3.193
2.926	3.090	3.207
2.926	3.088	3.204
2.925	3.096	3.210
2.929	3.088	3.223
2.931	3.088	3.228
2.936	3.089	3.228
2.936	3.097	3.233
2.931	3.091	3.243
2.936	3.093	3.244
2.933	3.086	3.240
2.945	3.089	3.226
2.945	3.087	3.223
2.950	3.086	3.227
2.945	3.092	3.231
2.933	3.095	3.230
2.939	3.094	3.233
2.940	3.094	3.238
2.943	3.091	3.215
2.948	3.088	3.193
2.941	3.088	3.179
2.939	3.088	3.177
2.933	3.088	3.161
2.941	3.094	3.159
2.941	3.090	3.148
2.943	3.089	3.157
2.946	3.084	3.170
2.943	3.086	3.194
2.946	3.091	3.228
2.945	3.089	3.243
2.945	3.088	3.268
2.951	3.094	3.278
2.950	3.087	3.282
2.950	3.088	3.267
2.946	3.088	3.257
2.940	3.086	3.240
2.931	3.088	3.230
2.931	3.091	3.225
2.929	3.091	3.223
2.933	3.086	3.238
2.938	3.093	3.270
2.943	3.091	3.282
2.946	3.089	3.281
2.939	3.089	3.282
2.943	3.086	3.284
2.941	3.091	3.280
2.945	3.091	3.281
2.945	3.089	3.293
2.943	3.090	3.299
2.939	3.087	3.304
2.940	3.083	3.296
2.953	3.089	3.279
2.963	3.094	3.272
2.965	3.089	3.265
2.963	3.088	3.259
2.962	3.086	3.266
2.960	3.088	3.281
2.957	3.093	3.288
2.968	3.088	3.286
2.968	3.091	3.279
2.963	3.088	3.272
2.953	3.092	3.270
2.945	3.096	3.280
2.953	3.096	3.282
2.955	3.093	3.279
2.955	3.091	3.292
2.947	3.091	3.289
2.951	3.088	3.279
2.947	3.089	3.259
2.955	3.091	3.252
2.956	3.098	3.250
2.958	3.088	3.265
2.956	3.089	3.293
2.955	3.090	3.298
2.955	3.093	3.282
2.956	3.089	3.262
2.951	3.087	3.243
2.953	3.086	3.241
2.953	3.093	3.235
2.956	3.091	3.220
2.960	3.091	3.201
2.958	3.088	3.186
2.960	3.088	3.183
2.957	3.086	3.191
2.967	3.089	3.192
2.963	3.095	3.196
2.970	3.088	3.192
2.970	3.089	3.206
2.963	3.088	3.206
2.960	3.084	3.199
2.958	3.089	3.195
2.955	3.086	3.209
2.965	3.089	3.213
2.960	3.082	3.211
2.968	3.087	3.216
2.955	3.079	3.210
2.957	3.084	3.180
2.958	3.086	3.169
2.955	3.080	3.178
2.958	3.088	3.193
2.963	3.088	3.235
2.960	3.089	3.245
2.961	3.086	3.247
2.959	3.084	3.248
2.960	3.089	3.248
2.958	3.086	3.243
2.965	3.089	3.246
2.967	3.086	3.250
2.956	3.089	3.259
2.960	3.088	3.257
2.960	3.090	3.265
2.962	3.089	3.262
2.956	3.091	3.257
2.954	3.089	3.271
2.955	3.091	3.277
2.963	3.092	3.264
2.955	3.086	3.252
2.960	3.088	3.248
2.965	3.089	3.243
2.967	3.089	3.239
2.972	3.083	3.231
2.979	3.088	3.231
2.973	3.090	3.235
2.977	3.087	3.245
2.972	3.089	3.260
2.976	3.094	3.251
2.980	3.091	3.252
2.982	3.089	3.261
2.975	3.091	3.270
2.980	3.094	3.284
2.988	3.099	3.294
2.982	3.091	3.284
2.984	3.091	3.254
2.980	3.089	3.218
2.982	3.094	3.190
2.971	3.087	3.196
2.965	3.086	3.210
2.965	3.086	3.207
2.960	3.086	3.221
2.963	3.089	3.230
2.964	3.089	3.240
2.972	3.091	3.265
2.970	3.089	3.272
2.980	3.088	3.267
2.980	3.091	3.267
2.982	3.089	3.252
2.987	3.090	3.223
2.982	3.089	3.196
2.969	3.089	3.158
2.962	3.084	3.146
2.967	3.084	3.140
2.965	3.088	3.160
2.962	3.084	3.164
2.968	3.092	3.152
2.970	3.088	3.138
2.968	3.089	3.132
2.982	3.089	3.127
2.981	3.092	3.136
2.977	3.088	3.159
2.974	3.091	3.167
2.977	3.091	3.163
2.977	3.091	3.171
2.970	3.089	3.162
2.959	3.086	3.150
2.963	3.089	3.140
2.960	3.098	3.132
2.963	3.095	3.128
2.956	3.095	3.113
2.963	3.093	3.108
2.968	3.095	3.129
2.970	3.095	3.166
2.977	3.087	3.184
2.975	3.082	3.179
2.980	3.093	3.178
2.981	3.091	3.210
2.973	3.099	3.248
2.971	3.096	3.272
2.972	3.088	3.279
2.965	3.092	3.237
2.962	3.091	3.216
2.962	3.091	3.211
2.965	3.096	3.206
2.965	3.090	3.196
2.966	3.087	3.196
2.971	3.090	3.189
2.975	3.092	3.185
2.985	3.093	3.176
2.987	3.094	3.177
2.984	3.091	3.199
2.983	3.093	3.221
2.982	3.091	3.213
2.987	3.096	3.196
2.978	3.099	3.184
2.970	3.092	3.191
2.956	3.092	3.196
2.958	3.094	3.190
2.958	3.093	3.190
2.960	3.091	3.199
2.958	3.099	3.199
2.965	3.096	3.186
2.962	3.098	3.179
2.965	3.098	3.176
2.976	3.096	3.175
2.965	3.094	3.191
2.962	3.091	3.192
2.970	3.093	3.196
2.960	3.089	3.235
2.967	3.095	3.253
2.962	3.089	3.262
2.965	3.088	3.260
2.956	3.088	3.270
2.961	3.093	3.281
2.965	3.092	3.277
2.960	3.091	3.277
2.960	3.091	3.287
2.960	3.093	3.274
2.958	3.099	3.260
2.955	3.096	3.253
2.965	3.097	3.242
2.968	3.098	3.224
2.968	3.094	3.210
2.959	3.092	3.181
2.962	3.095	3.162
2.968	3.099	3.176
2.965	3.096	3.179
2.955	3.098	3.163
2.960	3.096	3.190
2.960	3.095	3.193
2.966	3.098	3.196
2.966	3.095	3.199
2.972	3.097	3.200
2.972	3.092	3.195
2.972	3.092	3.208
2.972	3.092	3.207
2.968	3.098	3.199
2.967	3.094	3.196
2.965	3.096	3.199
2.958	3.093	3.186
2.963	3.092	3.182
2.966	3.093	3.189
2.961	3.093	3.181
2.958	3.091	3.164
2.965	3.091	3.155
2.962	3.095	3.163
2.967	3.097	3.171
2.977	3.092	3.195
2.972	3.093	3.203
2.970	3.101	3.203
2.963	3.096	3.211
2.967	3.092	3.215
2.955	3.098	3.232
2.958	3.098	3.231
2.960	3.094	3.233
2.955	3.096	3.243
2.963	3.091	3.233
2.961	3.094	3.221
2.950	3.096	3.215
2.950	3.091	3.225
2.948	3.096	3.233
2.947	3.092	3.240
2.950	3.096	3.238
2.945	3.094	3.216
2.947	3.091	3.208
2.943	3.095	3.191
2.943	3.098	3.184
2.934	3.096	3.186
2.934	3.103	3.175
2.931	3.099	3.170
2.938	3.100	3.157
2.943	3.100	3.145
2.942	3.099	3.130
2.952	3.103	3.134
2.950	3.101	3.137
2.956	3.101	3.140
2.953	3.105	3.137
2.954	3.094	3.138
2.953	3.097	3.127
2.945	3.098	3.125
2.948	3.101	3.114
2.945	3.101	3.107
2.949	3.099	3.105
2.943	3.098	3.125
2.943	3.097	3.142
2.944	3.091	3.152
2.943	3.088	3.144
2.943	3.092	3.149
2.956	3.096	3.147
2.957	3.098	3.138
2.958	3.086	3.122
2.960	3.093	3.122
2.953	3.101	3.144
2.950	3.101	3.165
2.951	3.100	3.159
2.948	3.097	3.157
2.941	3.101	3.164
2.943	3.098	3.188
2.950	3.099	3.207
2.950	3.103	3.201
2.947	3.098	3.216
2.943	3.098	3.236
2.948	3.103	3.254
2.948	3.096	3.260
2.942	3.101	3.233
2.939	3.099	3.209
2.943	3.101	3.186
2.947	3.089	3.177
2.943	3.098	3.174
2.947	3.095	3.178
2.948	3.091	3.190
2.956	3.093	3.191
2.952	3.086	3.198
2.950	3.096	3.197
2.943	3.093	3.191
2.947	3.093	3.183
2.947	3.096	3.193
2.948	3.099	3.200
2.952	3.099	3.206
2.953	3.099	3.194
2.953	3.096	3.194
2.944	3.095	3.197
2.946	3.096	3.190
2.950	3.103	3.189
2.956	3.101	3.209
2.955	3.099	3.230
2.950	3.098	3.260
2.954	3.096	3.281
2.950	3.099	3.289
2.945	3.091	3.280
2.943	3.094	3.279
2.945	3.095	3.289
2.953	3.095	3.285
2.955	3.092	3.265
2.960	3.091	3.231
2.965	3.098	3.223
2.962	3.092	3.220
2.972	3.091	3.221
2.975	3.098	3.243
2.978	3.095	3.268
2.979	3.096	3.291
2.978	3.097	3.303
2.979	3.098	3.317
2.974	3.095	3.326
2.980	3.097	3.330
2.964	3.095	3.330
2.970	3.096	3.320
2.968	3.096	3.301
2.976	3.093	3.247
2.976	3.096	3.223
2.977	3.093	3.210
2.982	3.095	3.219
2.987	3.099	3.223
2.982	3.096	3.215
2.979	3.093	3.211
2.984	3.100	3.238
2.977	3.092	3.258
2.990	3.094	3.269
2.994	3.096	3.281
3.007	3.098	3.269
3.002	3.096	3.265
3.002	3.096	3.245
2.994	3.095	3.238
2.984	3.095	3.246
2.982	3.096	3.249
2.985	3.095	3.265
2.986	3.093	3.278
2.987	3.093	3.294
2.986	3.095	3.297
2.975	3.094	3.294
2.977	3.097	3.298
2.974	3.094	3.299
2.976	3.099	3.316
2.972	3.094	3.328
2.980	3.091	3.330
2.979	3.094	3.290
2.983	3.100	3.277
2.983	3.098	3.281
2.983	3.099	3.296
2.980	3.102	3.311
2.984	3.104	3.304
2.993	3.104	3.298
2.994	3.105	3.300
2.982	3.105	3.294
2.983	3.106	3.303
2.982	3.104	3.317
2.987	3.103	3.306
2.987	3.101	3.303
2.990	3.103	3.303
2.991	3.105	3.316
2.989	3.106	3.316
2.982	3.103	3.303
2.977	3.104	3.292
2.978	3.105	3.277
2.984	3.101	3.278
2.980	3.106	3.287
2.983	3.106	3.318
2.982	3.106	3.350
2.984	3.111	3.363
2.983	3.106	3.361
2.982	3.105	3.351
2.980	3.106	3.331
2.983	3.105	3.301
2.982	3.103	3.297
2.977	3.102	3.298
2.977	3.107	3.298
2.977	3.101	3.301
2.970	3.103	3.294
2.969	3.103	3.286
2.977	3.103	3.284
2.978	3.106	3.274
2.978	3.101	3.290
2.979	3.106	3.292
2.977	3.103	3.319
2.967	3.103	3.328
2.962	3.103	3.315
2.968	3.107	3.276
2.970	3.102	3.254
2.970	3.104	3.248
2.972	3.101	3.248
2.976	3.103	3.288
2.969	3.099	3.308
2.972	3.106	3.300
2.980	3.103	3.297
2.975	3.103	3.292
2.962	3.100	3.294
2.959	3.098	3.279
2.965	3.103	3.250
2.970	3.104	3.240
2.976	3.099	3.245
2.977	3.104	3.253
2.977	3.097	3.245
2.967	3.101	3.232
2.970	3.101	3.216
2.960	3.104	3.196
2.962	3.103	3.182
2.955	3.106	3.164
2.955	3.101	3.154
2.953	3.106	3.157
2.955	3.101	3.142
2.955	3.108	3.131
2.965	3.108	3.122
2.975	3.107	3.130
2.972	3.102	3.150
2.972	3.101	3.167
2.963	3.101	3.176
2.960	3.106	3.178
2.964	3.106	3.188
2.961	3.105	3.177
2.955	3.105	3.168
2.950	3.098	3.159
2.951	3.105	3.145
2.943	3.096	3.140
2.937	3.099	3.145
2.940	3.102	3.148
2.943	3.098	3.127
2.937	3.099	3.098
2.941	3.096	3.060
2.943	3.098	3.056
2.936	3.101	3.070
2.938	3.101	3.099
2.945	3.098	3.128
2.942	3.101	3.130
2.938	3.091	3.143
2.936	3.094	3.163
2.936	3.095	3.163
2.933	3.098	3.160
2.943	3.106	3.135
2.945	3.101	3.119
2.948	3.096	3.108
2.945	3.099	3.125
2.942	3.089	3.145
2.945	3.091	3.142
2.945	3.093	3.127
2.952	3.093	3.112
2.955	3.098	3.098
2.951	3.093	3.108
2.943	3.096	3.116
2.945	3.092	3.118
2.948	3.094	3.115
2.942	3.095	3.107
2.953	3.103	3.079
2.950	3.091	3.092
2.956	3.100	3.091
2.951	3.091	3.108
2.953	3.098	3.108
2.945	3.098	3.106
2.945	3.098	3.098
2.938	3.098	3.107
2.937	3.094	3.112
2.938	3.100	3.123
2.943	3.103	3.103
2.939	3.095	3.091
2.942	3.096	3.087
2.941	3.096	3.068
2.928	3.094	3.057
2.926	3.091	3.066
2.936	3.096	3.063
2.925	3.097	3.049
2.933	3.091	3.039
2.941	3.093	3.039
2.942	3.099	3.057
2.946	3.096	3.084
2.951	3.095	3.101
2.950	3.093	3.100
2.955	3.099	3.095
2.953	3.101	3.084
2.949	3.093	3.076
2.938	3.096	3.065
2.943	3.094	3.058
2.944	3.091	3.053
2.944	3.094	3.061
2.947	3.095	3.062
2.945	3.096	3.054
2.943	3.099	3.047
2.940	3.098	3.043
2.939	3.087	3.075
2.941	3.094	3.109
2.936	3.092	3.117
2.938	3.096	3.137
2.942	3.091	3.142
2.938	3.093	3.147
2.938	3.100	3.140
2.943	3.096	3.125
2.936	3.101	3.124
2.945	3.091	3.132
2.950	3.090	3.132
2.948	3.095	3.117
2.940	3.095	3.124
2.940	3.096	3.119
2.933	3.098	3.108
2.928	3.094	3.110
2.938	3.097	3.125
2.943	3.096	3.165
2.944	3.089	3.173
2.943	3.088	3.176
2.946	3.094	3.197
2.951	3.088	3.216
2.948	3.092	3.223
2.950	3.085	3.228
2.943	3.084	3.218
2.948	3.086	3.199
2.948	3.091	3.191
2.947	3.088	3.184
2.955	3.090	3.184
2.953	3.091	3.197
2.967	3.091	3.207
2.958	3.088	3.201
2.955	3.088	3.188
2.955	3.082	3.174
2.950	3.089	3.179
2.943	3.089	3.185
2.943	3.089	3.196
2.933	3.085	3.200
2.936	3.089	3.187
2.948	3.093	3.176
2.949	3.094	3.159
2.945	3.089	3.154
2.945	3.089	3.144
2.942	3.089	3.142
2.945	3.086	3.142
2.944	3.084	3.155
2.952	3.087	3.169
2.950	3.087	3.163
2.953	3.090	3.164
2.953	3.092	3.164
2.963	3.091	3.175
2.955	3.089	3.210
2.955	3.086	3.216
2.958	3.089	3.203
2.956	3.086	3.163
2.955	3.091	3.135
2.956	3.088	3.120
2.956	3.093	3.140
2.955	3.088	3.204
2.960	3.094	3.237
2.955	3.088	3.232
2.955	3.096	3.231
2.947	3.083	3.240
2.945	3.086	3.252
2.948	3.091	3.265
2.951	3.089	3.262
2.947	3.091	3.269
2.950	3.091	3.287
2.948	3.088	3.276
2.950	3.086	3.272
2.953	3.083	3.275
2.953	3.084	3.276
2.947	3.082	3.265
2.953	3.085	3.262
2.956	3.083	3.269
2.946	3.086	3.313
2.946	3.091	3.338
2.941	3.089	3.347
2.940	3.088	3.354
2.943	3.088	3.326
2.943	3.088	3.299
2.945	3.091	3.294
2.946	3.092	3.297
2.941	3.088	3.294
2.943	3.088	3.294
2.945	3.089	3.297
2.948	3.085	3.301
2.953	3.091	3.315
2.948	3.089	3.337
2.947	3.091	3.340
2.945	3.088	3.308
2.943	3.091	3.287
2.943	3.091	3.265
2.948	3.091	3.260
2.958	3.083	3.256
2.955	3.088	3.227
2.950	3.096	3.210
2.950	3.092	3.194
2.953	3.087	3.210
2.942	3.086	3.238
2.946	3.089	3.254
2.933	3.086	3.269
2.937	3.081	3.272
2.944	3.084	3.262
2.933	3.088	3.247
2.931	3.088	3.220
2.933	3.086	3.201
2.929	3.084	3.197
2.927	3.082	3.186
2.935	3.083	3.177
2.936	3.084	3.169
2.939	3.084	3.177
2.938	3.081	3.174
2.936	3.083	3.179
2.938	3.085	3.186
2.936	3.088	3.183
2.936	3.084	3.152
2.933	3.085	3.145
2.934	3.089	3.125
2.931	3.089	3.109
2.930	3.086	3.108
2.933	3.086	3.127
2.933	3.081	3.149
2.936	3.087	3.160
2.938	3.086	3.177
2.938	3.086	3.193
2.939	3.086	3.211
2.941	3.081	3.203
2.938	3.089	3.189
2.934	3.086	3.166
2.929	3.088	3.125
2.923	3.088	3.105
2.928	3.088	3.108
2.920	3.092	3.117
2.916	3.085	3.132
2.918	3.081	3.160
2.933	3.082	3.207
2.939	3.082	3.213
2.941	3.078	3.211
2.937	3.082	3.230
2.938	3.089	3.253
2.943	3.081	3.246
2.936	3.088	3.243
2.948	3.081	3.202
2.947	3.081	3.177
2.943	3.086	3.144
2.946	3.080	3.122
2.937	3.089	3.108
2.943	3.085	3.102
2.936	3.083	3.108
2.928	3.089	3.115
2.926	3.089	3.115
2.926	3.084	3.120
2.927	3.088	3.148
2.928	3.088	3.142
2.936	3.089	3.119
2.939	3.083	3.092
2.938	3.082	3.086
2.931	3.081	3.091
2.941	3.084	3.091
2.938	3.083	3.117
2.935	3.081	3.130
2.947	3.079	3.142
2.940	3.087	3.152
2.948	3.084	3.141
2.948	3.082	3.122
2.940	3.086	3.115
2.936	3.086	3.093
2.933	3.081	3.091
2.936	3.089	3.100
2.931	3.085	3.124
2.935	3.080	3.127
2.931	3.082	3.116
2.933	3.088	3.113
2.937	3.086	3.140
2.944	3.086	3.142
2.936	3.086	3.134
2.938	3.086	3.124
2.936	3.088	3.110
2.933	3.084	3.111
2.935	3.084	3.108
2.929	3.085	3.101
2.928	3.088	3.076
2.924	3.086	3.083
2.926	3.090	3.114
2.926	3.089	3.123
2.921	3.087	3.134
2.927	3.088	3.165
2.926	3.086	3.174
2.925	3.084	3.175
2.928	3.083	3.183
2.924	3.089	3.191
2.922	3.088	3.193
2.916	3.089	3.200
2.921	3.087	3.192
2.933	3.081	3.189
2.929	3.089	3.197
2.935	3.083	3.206
2.934	3.084	3.220
2.943	3.083	3.215
2.945	3.083	3.196
2.951	3.086	3.208
2.948	3.089	3.218
2.943	3.083	3.213
2.950	3.084	3.204
2.948	3.083	3.216
2.950	3.086	3.222
2.944	3.087	3.218
2.955	3.089	3.210
2.956	3.083	3.215
2.956	3.089	3.230
2.953	3.092	3.215
2.943	3.086	3.193
2.936	3.086	3.189
2.929	3.087	3.174
2.933	3.083	3.161
2.930	3.082	3.164
2.934	3.096	3.177
2.929	3.089	3.199
2.938	3.089	3.208
2.941	3.083	3.210
2.943	3.081	3.196
2.945	3.088	3.191
2.948	3.088	3.193
2.938	3.079	3.183
2.934	3.087	3.177
2.926	3.088	3.186
2.924	3.081	3.225
2.924	3.084	3.236
2.928	3.086	3.222
2.928	3.084	3.213
2.928	3.089	3.205
2.933	3.085	3.190
2.936	3.079	3.186
2.941	3.082	3.196
2.936	3.084	3.211
2.948	3.081	3.222
2.956	3.083	3.214
2.955	3.081	3.202
2.946	3.083	3.166
2.940	3.074	3.162
2.936	3.078	3.163
2.931	3.076	3.153
2.933	3.076	3.125
2.940	3.082	3.096
2.933	3.084	3.081
2.933	3.078	3.071
2.936	3.086	3.054
2.936	3.082	3.052
2.938	3.079	3.062
2.943	3.083	3.091
2.931	3.079	3.117
2.928	3.081	3.140
2.934	3.083	3.137
2.929	3.086	3.123
2.932	3.080	3.113
2.927	3.073	3.117
2.923	3.082	3.137
2.931	3.086	3.157
2.929	3.087	3.159
2.936	3.082	3.157
2.931	3.076	3.142
2.929	3.081	3.134
2.921	3.083	3.137
2.926	3.076	3.125
2.927	3.081	3.115
2.924	3.089	3.144
2.932	3.084	3.149
2.933	3.082	3.152
2.928	3.082	3.147
2.936	3.080	3.144
2.936	3.087	3.162
2.931	3.079	3.169
2.929	3.084	3.160
2.934	3.084	3.162
2.930	3.081	3.167
2.931	3.080	3.189
2.928	3.084	3.225
2.928	3.077	3.236
2.931	3.090	3.242
2.931	3.084	3.231
2.933	3.082	3.206
2.949	3.083	3.177
2.944	3.082	3.171
2.934	3.074	3.169
2.936	3.086	3.160
2.933	3.082	3.159
2.938	3.079	3.165
2.940	3.084	3.164
2.945	3.082	3.157
2.950	3.083	3.185
2.956	3.081	3.194
2.955	3.082	3.193
2.950	3.088	3.189
2.956	3.081	3.195
2.952	3.079	3.185
2.951	3.079	3.172
2.950	3.079	3.163
2.953	3.079	3.167
2.945	3.081	3.181
2.936	3.073	3.187
2.943	3.076	3.196
2.930	3.076	3.201
2.931	3.079	3.204
2.930	3.083	3.208
2.948	3.084	3.216
2.950	3.087	3.205
2.961	3.086	3.184
2.960	3.084	3.176
2.963	3.084	3.172
2.961	3.083	3.174
2.959	3.084	3.176
2.956	3.079	3.175
2.945	3.081	3.177
2.951	3.085	3.165
2.945	3.083	3.140
2.947	3.080	3.115
2.943	3.080	3.098
2.943	3.084	3.086
2.942	3.079	3.084
2.935	3.082	3.086
2.950	3.081	3.110
2.955	3.081	3.125
2.957	3.072	3.142
2.963	3.081	3.143
2.962	3.086	3.142
2.967	3.084	3.127
2.956	3.079	3.125
2.961	3.081	3.125
2.956	3.087	3.114
2.962	3.079	3.115
2.967	3.076	3.133
2.970	3.084	3.142
2.962	3.086	3.132
2.970	3.079	3.141
2.967	3.086	3.153
2.980	3.084	3.180
2.971	3.083	3.206
2.977	3.083	3.200
2.980	3.083	3.184
2.985	3.079	3.169
2.980	3.079	3.148
2.979	3.084	3.159
2.977	3.086	3.183
2.977	3.081	3.221
2.982	3.082	3.233
2.981	3.087	3.240
2.981	3.088	3.244
2.985	3.085	3.244
2.985	3.086	3.247
2.980	3.083	3.250
2.982	3.086	3.250
2.992	3.082	3.269
2.992	3.084	3.271
2.999	3.085	3.267
2.997	3.085	3.258
2.991	3.081	3.238
2.990	3.089	3.226
2.982	3.089	3.231
2.983	3.089	3.240
2.982	3.096	3.239
2.982	3.085	3.250
2.982	3.086	3.248
2.980	3.088	3.245
2.984	3.086	3.247
2.993	3.083	3.260
2.985	3.085	3.272
2.990	3.090	3.265
2.983	3.084	3.253
2.982	3.086	3.260
2.980	3.081	3.264
2.989	3.084	3.267
2.985	3.078	3.253
2.982	3.084	3.233
2.985	3.079	3.223
2.979	3.084	3.231
2.987	3.086	3.264
2.983	3.080	3.287
2.982	3.077	3.299
2.978	3.082	3.288
2.968	3.089	3.292
2.970	3.084	3.301
2.965	3.081	3.292
2.972	3.089	3.289
2.972	3.081	3.283
2.980	3.081	3.293
2.981	3.089	3.309
2.982	3.084	3.330
2.983	3.079	3.330
2.977	3.083	3.315
2.985	3.085	3.303
2.984	3.088	3.309
2.988	3.082	3.316
2.985	3.083	3.326
2.987	3.081	3.320
3.000	3.083	3.313
2.999	3.088	3.292
3.009	3.086	3.294
3.009	3.083	3.298
3.005	3.081	3.316
3.004	3.088	3.330
3.008	3.091	3.324
3.008	3.090	3.308
3.009	3.086	3.277
3.005	3.083	3.281
3.006	3.085	3.289
3.002	3.084	3.321
3.007	3.086	3.330
2.997	3.088	3.321
2.995	3.088	3.330
3.002	3.093	3.354
3.007	3.096	3.362
3.017	3.091	3.355
3.025	3.086	3.347
3.026	3.097	3.339
3.027	3.088	3.349
3.026	3.089	3.357
3.019	3.089	3.350
3.026	3.088	3.345
3.022	3.088	3.343
3.023	3.091	3.343
3.016	3.091	3.340
3.019	3.098	3.338
3.016	3.088	3.335
3.019	3.093	3.350
3.011	3.090	3.351
3.009	3.086	3.333
3.009	3.086	3.301
3.006	3.087	3.289
3.004	3.089	3.277
3.007	3.084	3.255
2.997	3.087	3.248
2.992	3.091	3.268
2.997	3.096	3.286
2.997	3.097	3.291
3.002	3.091	3.283
3.007	3.089	3.274
3.010	3.092	3.243
3.002	3.097	3.234
3.002	3.088	3.219
2.997	3.089	3.203
2.997	3.093	3.203
2.992	3.089	3.194
2.989	3.089	3.176
2.989	3.086	3.158
2.986	3.088	3.162
2.995	3.083	3.174
2.988	3.089	3.169
2.987	3.089	3.177
2.987	3.089	3.176
2.989	3.087	3.162
2.987	3.090	3.157
2.989	3.085	3.152
2.995	3.091	3.170
2.987	3.088	3.211
2.984	3.084	3.223
2.982	3.087	3.226
2.990	3.094	3.223
2.988	3.091	3.208
2.987	3.088	3.202
2.995	3.091	3.206
2.989	3.084	3.199
2.994	3.086	3.194
2.992	3.084	3.196
3.003	3.085	3.201
3.010	3.096	3.197
3.009	3.084	3.195
3.004	3.089	3.189
2.997	3.086	3.193
2.987	3.091	3.187
2.987	3.088	3.189
2.987	3.084	3.206
2.987	3.091	3.220
2.990	3.090	3.228
2.991	3.094	3.229
2.994	3.097	3.228
2.999	3.102	3.220
2.996	3.090	3.208
3.005	3.088	3.215
3.004	3.091	3.236
3.000	3.088	3.250
3.002	3.088	3.247
3.008	3.091	3.227
2.998	3.091	3.225
3.000	3.089	3.213
2.999	3.089	3.219
2.991	3.092	3.215
2.987	3.092	3.215
2.992	3.087	3.229
2.992	3.091	3.255
2.992	3.092	3.257
2.998	3.099	3.248
3.007	3.091	3.233
3.004	3.091	3.236
3.007	3.091	3.239
3.002	3.093	3.265
3.000	3.091	3.284
2.992	3.094	3.299
2.994	3.091	3.301
2.987	3.095	3.289
2.985	3.091	3.289
2.984	3.089	3.279
2.995	3.085	3.258
2.997	3.089	3.243
3.004	3.089	3.227
3.004	3.091	3.199
2.995	3.096	3.179
2.994	3.098	3.173
2.995	3.093	3.161
2.998	3.093	3.162
3.001	3.092	3.167
3.011	3.087	3.179
3.007	3.097	3.170
2.997	3.086	3.169
2.992	3.088	3.179
2.994	3.089	3.191
2.989	3.094	3.199
2.981	3.093	3.196
2.993	3.089	3.176
2.991	3.088	3.177
2.989	3.091	3.196
2.985	3.091	3.209
2.982	3.099	3.216
2.990	3.090	3.247
2.995	3.089	3.269
2.999	3.087	3.284
3.002	3.088	3.288
3.005	3.094	3.282
3.003	3.096	3.281
2.999	3.091	3.278
2.992	3.094	3.276
2.985	3.094	3.253
2.984	3.096	3.227
2.987	3.096	3.196
2.982	3.094	3.179
2.983	3.091	3.173
2.994	3.092	3.158
3.000	3.094	3.162
2.997	3.099	3.177
2.987	3.101	3.193
2.989	3.101	3.223
2.983	3.103	3.222
2.979	3.101	3.210
2.969	3.095	3.186
2.978	3.106	3.196
2.986	3.101	3.225
2.985	3.099	3.238
2.979	3.094	3.240
2.984	3.090	3.246
2.982	3.092	3.248
2.979	3.094	3.266
2.974	3.098	3.257
2.982	3.099	3.248
2.975	3.099	3.262
2.985	3.098	3.281
2.979	3.095	3.303
2.977	3.098	3.316
2.977	3.096	3.350
2.985	3.091	3.347
2.987	3.090	3.326
2.991	3.100	3.281
2.989	3.091	3.272
2.992	3.093	3.261
2.989	3.094	3.248
2.994	3.096	3.217
2.992	3.096	3.209
2.989	3.093	3.191
2.992	3.096	3.172
2.999	3.101	3.162
2.988	3.096	3.161
2.992	3.099	3.151
2.992	3.094	3.144
2.986	3.092	3.131
2.987	3.092	3.123
2.992	3.091	3.120
2.997	3.091	3.138
2.992	3.091	3.145
2.995	3.086	3.159
2.988	3.089	3.155
2.994	3.088	3.160
2.992	3.091	3.172
2.992	3.090	3.191
2.995	3.096	3.207
2.994	3.093	3.215
2.985	3.097	3.197
2.983	3.096	3.189
2.992	3.094	3.191
2.994	3.089	3.199
2.994	3.093	3.203
2.992	3.088	3.207
2.993	3.093	3.211
2.983	3.089	3.196
2.974	3.094	3.169
2.975	3.096	3.149
2.975	3.096	3.141
2.963	3.091	3.167
2.967	3.092	3.174
2.965	3.088	3.179
2.978	3.091	3.213
2.983	3.089	3.216
2.982	3.088	3.230
2.982	3.096	3.238
2.980	3.096	3.236
2.978	3.093	3.223
2.979	3.098	3.206
2.981	3.094	3.196
2.987	3.093	3.189
2.982	3.094	3.177
2.985	3.095	3.162
2.987	3.099	3.157
2.987	3.098	3.142
2.982	3.099	3.144
2.992	3.099	3.145
2.989	3.096	3.161
2.987	3.093	3.180
2.985	3.096	3.210
2.987	3.096	3.233
2.986	3.096	3.251
2.979	3.093	3.275
2.990	3.094	3.269
2.994	3.092	3.265
2.992	3.088	3.250
2.992	3.095	3.247
2.989	3.093	3.232
2.987	3.091	3.229
2.982	3.091	3.197
2.978	3.093	3.173
2.975	3.093	3.167
2.974	3.090	3.155
2.977	3.089	3.154
2.985	3.093	3.164
2.985	3.094	3.166
2.984	3.095	3.172
2.987	3.092	3.175
2.987	3.086	3.187
2.983	3.093	3.212
2.982	3.093	3.242
2.978	3.089	3.253
2.975	3.094	3.254
2.977	3.093	3.245
2.982	3.093	3.245
2.982	3.099	3.231
2.972	3.093	3.195
2.975	3.095	3.159
2.970	3.085	3.140
2.974	3.090	3.135
2.970	3.082	3.142
2.972	3.091	3.156
2.973	3.092	3.157
2.974	3.092	3.162
2.975	3.088	3.162
2.977	3.091	3.154
2.977	3.089	3.155
2.980	3.088	3.178
2.975	3.089	3.202
2.978	3.096	3.228
2.982	3.096	3.238
2.992	3.092	3.238
2.989	3.092	3.244
2.992	3.096	3.249
2.999	3.093	3.253
3.000	3.089	3.247
2.992	3.087	3.230
2.987	3.089	3.236
2.978	3.085	3.240
2.977	3.091	3.233
2.973	3.091	3.213
2.979	3.089	3.210
2.970	3.092	3.218
2.975	3.093	3.216
2.977	3.091	3.212
2.973	3.092	3.214
2.974	3.088	3.206
2.971	3.091	3.213
2.980	3.091	3.211
2.975	3.091	3.197
2.975	3.089	3.163
2.977	3.088	3.169
2.972	3.091	3.173
2.982	3.084	3.186
2.978	3.084	3.188
2.974	3.088	3.196
2.963	3.091	3.210
2.972	3.091	3.219
2.979	3.091	3.236
2.979	3.094	3.245
2.979	3.089	3.228
2.977	3.089	3.243
2.977	3.088	3.232
2.969	3.091	3.218
2.975	3.088	3.208
2.973	3.093	3.203
2.975	3.088	3.200
2.972	3.091	3.203
2.977	3.099	3.211
2.980	3.089	3.195
2.982	3.088	3.197
2.977	3.088	3.198
2.981	3.094	3.208
2.974	3.091	3.210
2.976	3.093	3.205
2.975	3.088	3.210
2.970	3.091	3.229
2.965	3.088	3.240
2.962	3.094	3.245
2.958	3.092	3.255
2.955	3.094	3.265
2.959	3.093	3.227
2.962	3.091	3.200
2.956	3.091	3.191
2.957	3.091	3.213
2.963	3.098	3.227
2.965	3.091	3.207
2.967	3.088	3.201
2.962	3.088	3.204
2.965	3.095	3.209
2.963	3.092	3.210
2.960	3.097	3.222
2.958	3.092	3.216
2.958	3.090	3.210
2.965	3.089	3.199
2.965	3.089	3.172
2.967	3.094	3.162
2.962	3.091	3.168
2.965	3.091	3.180
2.967	3.092	3.181
2.967	3.091	3.196
2.967	3.093	3.210
2.963	3.089	3.225
2.967	3.089	3.230
2.969	3.092	3.232
2.982	3.091	3.231
2.979	3.088	3.231
2.975	3.094	3.233
2.982	3.089	3.226
2.986	3.093	3.213
2.975	3.091	3.210
2.980	3.096	3.206
2.977	3.094	3.181
2.982	3.091	3.169
2.980	3.089	3.167
2.972	3.094	3.171
2.982	3.093	3.181
2.975	3.086	3.199
2.987	3.093	3.209
2.991	3.094	3.214
2.987	3.091	3.237
2.990	3.093	3.247
2.982	3.091	3.231
2.977	3.091	3.213
2.965	3.089	3.196
2.958	3.088	3.193
2.960	3.089	3.183
2.957	3.088	3.193
2.968	3.090	3.201
2.972	3.092	3.211
2.972	3.088	3.200
2.969	3.089	3.188
2.974	3.093	3.165
2.972	3.093	3.167
2.975	3.091	3.177
2.965	3.093	3.187
2.955	3.088	3.186
2.955	3.095	3.184
2.950	3.096	3.186
2.955	3.089	3.179
2.963	3.090	3.181
2.967	3.091	3.184
2.960	3.096	3.196
2.962	3.093	3.223
2.962	3.091	3.233
2.966	3.095	3.240
2.958	3.088	3.248
2.955	3.091	3.262
2.967	3.088	3.265
2.943	3.091	3.253
2.955	3.089	3.218
2.943	3.084	3.200
2.942	3.084	3.177
2.945	3.089	3.148
2.942	3.084	3.127
2.941	3.088	3.112
2.941	3.086	3.101
2.950	3.089	3.108
2.958	3.090	3.125
2.965	3.091	3.140
2.967	3.087	3.167
2.965	3.093	3.188
2.960	3.086	3.200
2.953	3.094	3.180
2.943	3.086	3.147
2.938	3.092	3.122
2.940	3.088	3.113
2.941	3.091	3.112
2.945	3.088	3.111
2.948	3.087	3.113
2.947	3.088	3.132
2.953	3.086	3.150
2.948	3.088	3.169
2.951	3.083	3.179
2.953	3.086	3.176
2.950	3.086	3.161
2.963	3.092	3.165
2.962	3.088	3.184
2.973	3.081	3.199
2.977	3.089	3.193
2.979	3.091	3.175
2.972	3.089	3.152
2.975	3.088	3.143
2.979	3.096	3.140
2.977	3.090	3.138
2.975	3.087	3.157
2.969	3.089	3.171
2.965	3.088	3.168
2.967	3.085	3.180
2.967	3.086	3.193
2.967	3.092	3.210
2.968	3.086	3.220
2.964	3.086	3.217
2.965	3.086	3.230
2.968	3.093	3.238
2.975	3.091	3.235
2.975	3.096	3.238
2.975	3.096	3.247
2.975	3.089	3.255
2.975	3.089	3.259
2.976	3.089	3.238
2.974	3.087	3.218
2.968	3.088	3.223
2.973	3.089	3.233
2.960	3.089	3.244
2.963	3.089	3.218
2.960	3.089	3.195
2.960	3.086	3.174
2.957	3.086	3.164
2.961	3.089	3.186
2.958	3.093	3.211
2.967	3.088	3.241
2.975	3.084	3.246
2.975	3.090	3.255
2.970	3.089	3.258
2.970	3.089	3.231
2.963	3.088	3.208
2.959	3.093	3.197
2.957	3.089	3.196
2.957	3.089	3.208
2.957	3.089	3.219
2.955	3.090	3.234
2.955	3.088	3.217
2.953	3.088	3.210
2.955	3.089	3.204
2.962	3.091	3.213
2.955	3.092	3.210
2.961	3.088	3.209
2.959	3.086	3.204
2.960	3.088	3.201
2.955	3.089	3.201
2.950	3.096	3.206
2.955	3.091	3.221
2.955	3.096	3.215
2.960	3.094	3.196
2.962	3.088	3.181
2.956	3.094	3.186
2.951	3.094	3.199
2.953	3.088	3.218
2.950	3.084	3.228
2.953	3.088	3.243
2.945	3.081	3.231
2.948	3.089	3.228
2.940	3.089	3.247
2.943	3.088	3.257
2.947	3.085	3.257
2.938	3.086	3.253
2.950	3.093	3.245
2.950	3.093	3.228
2.950	3.093	3.208
2.953	3.090	3.211
2.947	3.092	3.215
2.948	3.096	3.203
2.944	3.084	3.197
2.949	3.086	3.184
2.948	3.093	3.179
2.950	3.088	3.189
2.956	3.094	3.187
2.967	3.091	3.196
2.972	3.094	3.216
2.970	3.091	3.228
2.972	3.092	3.230
2.968	3.086	3.262
2.961	3.096	3.281
2.962	3.098	3.295
2.963	3.096	3.311
2.958	3.095	3.303
2.963	3.096	3.294
2.965	3.091	3.287
2.957	3.088	3.265
2.960	3.092	3.239
2.961	3.093	3.218
2.969	3.091	3.191
2.959	3.094	3.164
2.955	3.089	3.173
2.957	3.093	3.191
2.960	3.096	3.209
2.970	3.093	3.219
2.965	3.088	3.230
2.963	3.092	3.244
2.966	3.095	3.260
2.968	3.094	3.252
2.966	3.101	3.240
2.963	3.095	3.231
2.970	3.088	3.248
2.967	3.088	3.265
2.977	3.096	3.275
2.972	3.088	3.265
2.975	3.091	3.247
2.966	3.092	3.235
2.961	3.093	3.213
2.954	3.088	3.226
2.955	3.089	3.240
2.955	3.083	3.258
2.955	3.091	3.271
2.955	3.091	3.269
2.955	3.093	3.270
2.950	3.099	3.289
2.953	3.095	3.291
2.954	3.096	3.284
2.961	3.088	3.282
2.965	3.093	3.270
2.962	3.094	3.249
2.965	3.094	3.202
2.970	3.096	3.177
2.969	3.101	3.162
2.980	3.105	3.167
2.975	3.093	3.193
2.983	3.091	3.200
2.978	3.097	3.235
2.982	3.098	3.269
2.980	3.101	3.282
2.980	3.095	3.272
2.985	3.096	3.272
2.988	3.098	3.279
2.989	3.095	3.264
2.981	3.096	3.244
2.982	3.100	3.243
2.979	3.090	3.233
2.977	3.088	3.225
2.975	3.094	3.208
2.975	3.096	3.213
2.979	3.094	3.213
2.967	3.088	3.226
2.977	3.091	3.228
2.975	3.091	3.228
2.978	3.093	3.216
2.979	3.088	3.218
2.968	3.096	3.218
2.975	3.099	3.215
2.972	3.096	3.213
2.965	3.093	3.230
2.968	3.091	3.229
2.960	3.088	3.205
2.961	3.095	3.174
2.959	3.092	3.145
2.958	3.085	3.145
2.958	3.089	3.171
2.965	3.093	3.181
2.963	3.096	3.178
2.967	3.093	3.174
2.974	3.091	3.177
2.977	3.091	3.164
2.970	3.093	3.155
2.977	3.083	3.144
2.969	3.096	3.147
2.975	3.093	3.147
2.972	3.090	3.147
2.972	3.090	3.147
2.972	3.093	3.135
2.976	3.091	3.125
2.977	3.091	3.116
2.972	3.089	3.129
2.964	3.095	3.140
2.957	3.093	3.159
2.960	3.089	3.170
2.962	3.091	3.170
2.960	3.096	3.167
2.955	3.099	3.185
2.969	3.097	3.181
2.972	3.097	3.183
2.977	3.096	3.175
2.978	3.088	3.161
2.968	3.091	3.155
2.970	3.091	3.132
2.965	3.093	3.098
2.958	3.096	3.091
2.955	3.093	3.090
2.957	3.091	3.102
2.957	3.093	3.086
2.965	3.096	3.073
2.963	3.095	3.059
2.960	3.093	3.086
2.962	3.095	3.110
2.960	3.093	3.120
2.955	3.089	3.115
2.953	3.088	3.120
2.950	3.088	3.131
2.951	3.096	3.132
2.951	3.090	3.104
2.952	3.091	3.086
2.942	3.089	3.071
2.947	3.089	3.051
2.950	3.102	3.039
2.953	3.095	3.049
2.952	3.096	3.067
2.947	3.096	3.073
2.955	3.091	3.078
2.956	3.094	3.083
2.953	3.096	3.091
2.956	3.093	3.098
2.955	3.090	3.112
2.951	3.093	3.125
2.956	3.095	3.125
2.960	3.096	3.125
2.962	3.098	3.132
2.970	3.090	3.166
2.967	3.087	3.177
2.968	3.093	3.181
2.970	3.093	3.187
2.960	3.095	3.191
2.958	3.089	3.193
2.956	3.091	3.190
2.953	3.088	3.196
2.948	3.089	3.174
2.958	3.091	3.170
2.955	3.093	3.164
2.939	3.092	3.162
2.938	3.094	3.161
2.940	3.084	3.175
2.941	3.091	3.159
2.941	3.091	3.155
2.938	3.096	3.147
2.930	3.093	3.167
2.936	3.094	3.172
2.938	3.088	3.161
2.934	3.093	3.116
2.940	3.093	3.081
2.933	3.093	3.081
2.936	3.099	3.083
2.937	3.095	3.091
2.943	3.093	3.100
2.942	3.093	3.125
2.945	3.088	3.174
2.948	3.093	3.191
2.946	3.089	3.210
2.950	3.086	3.229
2.951	3.091	3.228
2.936	3.093	3.228
2.939	3.101	3.209
2.947	3.091	3.184
2.948	3.092	3.196
2.943	3.091	3.196
2.948	3.084	3.200
2.949	3.088	3.216
2.947	3.088	3.226
2.946	3.091	3.230
2.951	3.088	3.230
2.950	3.091	3.225
2.957	3.093	3.232
2.965	3.089	3.245
2.962	3.091	3.255
2.965	3.098	3.252
2.963	3.100	3.254
2.962	3.096	3.262
2.961	3.091	3.270
2.970	3.093	3.279
2.972	3.093	3.291
2.974	3.091	3.311
2.972	3.094	3.325
2.965	3.096	3.303
2.963	3.088	3.292
2.958	3.095	3.281
2.963	3.093	3.270
2.953	3.091	3.236
2.955	3.089	3.201
2.958	3.092	3.191
2.960	3.084	3.172
2.953	3.089	3.164
2.943	3.089	3.161
2.943	3.089	3.155
2.944	3.090	3.162
2.945	3.091	3.183
2.953	3.101	3.199
2.956	3.088	3.213
2.957	3.095	3.226
2.960	3.093	3.230
2.960	3.097	3.234
2.960	3.094	3.226
2.953	3.101	3.221
2.953	3.096	3.220
2.947	3.094	3.226
2.949	3.101	3.235
2.958	3.093	3.241
2.956	3.095	3.241
2.950	3.097	3.246
2.955	3.093	3.248
2.957	3.096	3.247
2.956	3.093	3.249
2.955	3.099	3.254
2.963	3.101	3.242
2.970	3.099	3.224
2.982	3.096	3.206
2.979	3.099	3.201
2.982	3.101	3.200
2.977	3.096	3.213
2.969	3.093	3.221
2.970	3.093	3.226
2.968	3.093	3.218
2.967	3.097	3.228
2.970	3.096	3.239
2.977	3.094	3.276
2.972	3.089	3.291
2.970	3.088	3.299
2.965	3.092	3.286
2.967	3.096	3.252
2.967	3.091	3.239
2.968	3.098	3.218
2.969	3.100	3.197
2.974	3.103	3.189
2.972	3.095	3.191
2.977	3.101	3.186
2.975	3.103	3.174
2.977	3.101	3.166
2.972	3.095	3.165
2.972	3.099	3.177
2.975	3.092	3.196
2.970	3.094	3.196
2.972	3.096	3.195
2.970	3.096	3.203
2.967	3.088	3.196
2.970	3.096	3.196
2.965	3.096	3.186
2.963	3.101	3.170
2.960	3.096	3.132
2.957	3.096	3.114
2.960	3.102	3.118
2.954	3.092	3.115
2.955	3.096	3.130
2.953	3.099	3.163
2.956	3.094	3.168
2.957	3.093	3.171
2.965	3.098	3.184
2.980	3.098	3.196
2.975	3.096	3.193
2.972	3.092	3.159
2.971	3.094	3.167
2.967	3.096	3.181
2.960	3.098	3.179
2.965	3.089	3.162
2.968	3.094	3.144
2.975	3.096	3.134
2.967	3.101	3.160
2.970	3.099	3.173
2.963	3.098	3.176
2.961	3.090	3.162
2.957	3.094	3.147
2.958	3.096	3.132
2.963	3.099	3.120
2.960	3.099	3.103
2.958	3.099	3.095
2.953	3.101	3.125
2.963	3.086	3.144
2.965	3.094	3.164
2.970	3.093	3.188
2.966	3.096	3.188
2.970	3.093	3.159
2.975	3.098	3.142
2.962	3.096	3.140
2.960	3.096	3.143
2.960	3.088	3.125
2.945	3.101	3.133
2.950	3.099	3.139
2.956	3.104	3.181
2.953	3.102	3.204
2.956	3.098	3.226
2.956	3.099	3.237
2.962	3.096	3.219
2.956	3.093	3.212
2.953	3.093	3.218
2.943	3.094	3.221
2.943	3.089	3.215
2.941	3.093	3.210
2.931	3.098	3.177
2.938	3.093	3.157
2.936	3.093	3.147
2.928	3.093	3.147
2.931	3.098	3.149
2.940	3.099	3.157
2.943	3.096	3.162
2.950	3.094	3.176
2.951	3.090	3.181
2.949	3.091	3.191
2.955	3.096	3.203
2.948	3.092	3.194
2.943	3.098	3.172
2.941	3.093	3.150
2.939	3.095	3.130
2.939	3.093	3.113
2.938	3.090	3.100
2.937	3.103	3.091
2.934	3.099	3.101
2.946	3.097	3.108
2.948	3.095	3.122
2.945	3.098	3.144
2.953	3.101	3.159
2.958	3.098	3.177
2.957	3.093	3.161
2.955	3.100	3.172
2.956	3.100	3.179
2.959	3.100	3.176
2.958	3.093	3.177
2.955	3.093	3.167
2.950	3.096	3.150
2.955	3.094	3.118
2.957	3.090	3.104
2.955	3.098	3.124
2.957	3.092	3.143
2.956	3.098	3.145
2.954	3.093	3.137
2.957	3.094	3.140
2.955	3.101	3.134
2.950	3.089	3.141
2.953	3.086	3.150
2.948	3.093	3.148
2.956	3.091	3.137
2.955	3.099	3.141
2.959	3.096	3.138
2.954	3.098	3.131
2.960	3.098	3.142
2.955	3.096	3.147
2.955	3.094	3.154
2.956	3.088	3.164
2.957	3.094	3.156
2.962	3.094	3.147
2.963	3.094	3.148
2.966	3.096	3.158
2.970	3.091	3.172
2.972	3.097	3.203
2.967	3.093	3.211
2.970	3.101	3.223
2.968	3.096	3.216
2.969	3.093	3.213
2.957	3.096	3.210
2.958	3.097	3.216
2.960	3.094	3.241
2.964	3.096	3.245
2.963	3.086	3.230
2.960	3.096	3.229
2.960	3.099	3.230
2.960	3.099	3.243
2.968	3.098	3.231
2.970	3.091	3.221
2.978	3.098	3.235
2.974	3.096	3.255
2.976	3.103	3.250
2.967	3.096	3.259
2.975	3.093	3.284
2.970	3.103	3.316
2.965	3.097	3.316
2.963	3.089	3.311
2.963	3.096	3.299
2.968	3.099	3.276
2.966	3.096	3.280
2.966	3.095	3.295
2.960	3.095	3.299
2.966	3.101	3.302
2.962	3.099	3.301
2.960	3.099	3.299
2.967	3.102	3.301
2.963	3.097	3.308
2.958	3.101	3.311
2.963	3.101	3.326
2.953	3.101	3.331
2.955	3.098	3.352
2.960	3.091	3.344
2.950	3.101	3.320
2.956	3.101	3.297
2.955	3.101	3.291
2.963	3.096	3.294
2.956	3.096	3.294
2.961	3.093	3.299
2.965	3.100	3.305
2.958	3.101	3.292
2.953	3.096	3.292
2.950	3.103	3.294
2.960	3.098	3.292
2.963	3.101	3.291
2.972	3.100	3.301
2.966	3.106	3.304
2.969	3.101	3.306
2.969	3.106	3.308
2.970	3.104	3.304
2.980	3.099	3.304
2.979	3.101	3.315
2.980	3.102	3.325
2.974	3.108	3.320
2.969	3.106	3.309
2.966	3.109	3.289
2.978	3.103	3.276
2.966	3.106	3.275
2.970	3.105	3.279
2.965	3.105	3.284
2.967	3.103	3.299
2.963	3.108	3.293
2.958	3.101	3.304
2.968	3.100	3.329
2.973	3.101	3.330
2.969	3.100	3.321
2.970	3.106	3.333
2.972	3.106	3.330
2.980	3.107	3.335
2.982	3.106	3.343
2.985	3.103	3.350
2.987	3.100	3.347
2.982	3.108	3.347
2.990	3.105	3.327
2.984	3.104	3.315
2.978	3.105	3.332
2.982	3.107	3.346
2.970	3.101	3.338
2.975	3.106	3.317
2.969	3.106	3.306
2.972	3.107	3.302
2.960	3.103	3.292
2.960	3.101	3.297
2.956	3.105	3.311
2.954	3.108	3.330
2.956	3.103	3.342
2.960	3.106	3.345
2.965	3.107	3.325
2.964	3.105	3.323
2.969	3.102	3.311
2.982	3.101	3.272
2.978	3.100	3.262
2.978	3.103	3.267
2.970	3.098	3.267
2.957	3.098	3.281
2.953	3.098	3.298
2.953	3.102	3.316
2.955	3.105	3.320
2.957	3.099	3.318
2.953	3.102	3.309
2.956	3.107	3.294
2.964	3.098	3.284
2.961	3.101	3.292
2.955	3.103	3.289
2.968	3.101	3.291
2.975	3.097	3.279
2.965	3.098	3.267
2.965	3.099	3.262
2.960	3.103	3.257
2.956	3.100	3.243
2.958	3.103	3.225
2.952	3.106	3.215
2.948	3.107	3.218
2.955	3.095	3.213
2.955	3.101	3.197
2.955	3.103	3.194
2.960	3.103	3.196
2.967	3.101	3.196
2.977	3.100	3.171
2.974	3.106	3.158
2.972	3.105	3.164
2.965	3.106	3.181
2.975	3.103	3.192
2.965	3.101	3.191
2.967	3.098	3.188
2.967	3.101	3.198
2.968	3.101	3.199
2.968	3.106	3.189
2.956	3.103	3.167
2.956	3.103	3.162
2.947	3.103	3.174
2.940	3.105	3.191
2.945	3.103	3.211
2.948	3.101	3.209
2.954	3.106	3.211
2.961	3.106	3.198
2.968	3.110	3.236
2.956	3.104	3.269
2.945	3.106	3.314
2.948	3.102	3.328
2.957	3.106	3.331
2.960	3.106	3.330
2.956	3.103	3.318
2.952	3.103	3.320
2.957	3.105	3.330
2.955	3.103	3.311
2.954	3.101	3.294
2.953	3.101	3.281
2.953	3.105	3.265
2.960	3.105	3.225
2.960	3.101	3.202
2.955	3.108	3.196
2.954	3.106	3.203
2.945	3.106	3.223
2.946	3.106	3.240
2.956	3.105	3.263
2.956	3.107	3.271
2.953	3.110	3.273
2.953	3.106	3.265
2.950	3.111	3.268
2.955	3.107	3.280
2.955	3.107	3.298
2.950	3.108	3.305
2.955	3.110	3.285
2.953	3.115	3.264
2.947	3.109	3.246
2.946	3.110	3.235
2.941	3.113	3.222
2.945	3.115	3.213
2.948	3.110	3.231
2.957	3.111	3.240
2.967	3.106	3.259
2.966	3.107	3.262
2.959	3.109	3.257
2.962	3.113	3.240
2.955	3.115	3.235
2.957	3.113	3.229
2.955	3.111	3.206
2.953	3.106	3.196
2.952	3.113	3.207
2.951	3.115	3.210
2.948	3.111	3.210
2.956	3.108	3.221
2.958	3.114	3.208
2.960	3.109	3.210
2.972	3.108	3.215
2.979	3.110	3.229
2.972	3.106	3.250
2.969	3.111	3.265
2.967	3.115	3.277
2.967	3.116	3.267
2.965	3.118	3.269
2.957	3.113	3.264
2.960	3.115	3.248
2.965	3.110	3.249
2.962	3.110	3.246
2.957	3.111	3.233
2.957	3.110	3.221
2.970	3.111	3.229
2.975	3.109	3.233
2.976	3.111	3.274
2.972	3.106	3.292
2.967	3.110	3.303
2.968	3.115	3.297
2.965	3.116	3.283
2.963	3.114	3.260
2.959	3.118	3.233
2.960	3.121	3.205
2.968	3.120	3.186
2.978	3.120	3.174
2.980	3.118	3.186
2.967	3.115	3.208
2.985	3.113	3.233
2.976	3.114	3.238
2.970	3.113	3.230
2.962	3.113	3.231
2.967	3.105	3.234
2.960	3.111	3.243
2.960	3.108	3.253
2.963	3.108	3.264
2.968	3.113	3.286
2.975	3.116	3.292
2.975	3.119	3.299
2.976	3.116	3.287
2.974	3.118	3.276
2.967	3.121	3.260
2.963	3.110	3.250
2.962	3.107	3.235
2.961	3.108	3.215
2.961	3.110	3.210
2.972	3.108	3.223
2.970	3.105	3.248
2.972	3.106	3.253
2.962	3.114	3.271
2.964	3.111	3.287
2.968	3.109	3.296
2.973	3.108	3.281
2.967	3.110	3.257
2.970	3.109	3.231
2.957	3.106	3.214
2.961	3.106	3.200
2.952	3.111	3.191
2.955	3.111	3.189
2.947	3.112	3.179
2.950	3.106	3.181
2.945	3.106	3.176
2.943	3.111	3.171
2.945	3.107	3.179
2.952	3.103	3.188
2.954	3.113	3.182
2.952	3.111	3.176
2.953	3.110	3.197
2.955	3.110	3.210
2.950	3.110	3.215
2.951	3.111	3.176
2.947	3.108	3.169
2.952	3.116	3.173
2.956	3.109	3.196
2.956	3.108	3.201
2.965	3.103	3.209
2.957	3.106	3.205
2.967	3.105	3.197
2.960	3.105	3.203
2.963	3.106	3.210
2.967	3.108	3.211
2.965	3.107	3.196
2.975	3.106	3.206
2.974	3.103	3.193
2.969	3.105	3.180
2.969	3.104	3.187
2.972	3.105	3.196
2.977	3.110	3.194
2.970	3.106	3.191
2.970	3.106	3.182
2.958	3.109	3.187
2.958	3.106	3.181
2.965	3.111	3.181
2.957	3.109	3.187
2.960	3.106	3.168
2.958	3.108	3.149
2.955	3.106	3.125
2.961	3.104	3.110
2.955	3.105	3.091
2.957	3.103	3.086
2.957	3.101	3.103
2.962	3.101	3.148
2.965	3.101	3.177
2.962	3.106	3.201
2.965	3.108	3.238
2.968	3.101	3.248
2.953	3.099	3.229
2.950	3.098	3.203
2.946	3.098	3.191
2.948	3.097	3.187
2.945	3.106	3.176
2.945	3.106	3.147
2.943	3.105	3.152
2.950	3.103	3.154
2.948	3.101	3.151
2.936	3.101	3.150
2.936	3.103	3.155
2.934	3.101	3.162
2.936	3.100	3.159
2.941	3.099	3.148
2.936	3.101	3.142
2.933	3.106	3.140
2.936	3.096	3.154
2.936	3.099	3.157
2.941	3.100	3.169
2.935	3.108	3.185
2.925	3.096	3.196
2.933	3.101	3.206
2.943	3.098	3.216
2.943	3.101	3.236
2.950	3.098	3.241
2.938	3.101	3.226
2.936	3.106	3.196
2.934	3.103	3.189
2.931	3.098	3.190
2.932	3.093	3.220
2.930	3.092	3.228
2.928	3.092	3.214
2.928	3.088	3.193
2.926	3.091	3.177
2.931	3.096	3.185
2.931	3.098	3.181
2.932	3.103	3.175
2.934	3.101	3.184
2.927	3.099	3.196
2.939	3.103	3.193
2.944	3.098	3.186
2.952	3.098	3.200
2.945	3.099	3.199
2.946	3.101	3.194
2.943	3.096	3.187
2.938	3.099	3.177
2.937	3.106	3.151
2.946	3.096	3.132
2.941	3.101	3.128
2.941	3.103	3.127
2.953	3.100	3.110
2.955	3.103	3.101
2.955	3.099	3.093
2.953	3.097	3.074
2.951	3.098	3.062
2.952	3.102	3.071
2.948	3.098	3.093
2.955	3.099	3.127
2.955	3.103	3.159
2.955	3.101	3.176
2.952	3.101	3.184
2.955	3.096	3.202
2.955	3.099	3.201
2.953	3.103	3.187
2.953	3.095	3.200
2.940	3.096	3.211
2.943	3.099	3.216
2.941	3.094	3.205
2.943	3.095	3.181
2.950	3.093	3.176
2.956	3.094	3.190
2.956	3.099	3.208
2.951	3.096	3.238
2.952	3.093	3.250
2.952	3.094	3.247
2.946	3.098	3.248
2.948	3.097	3.230
2.953	3.103	3.219
2.952	3.101	3.210
2.950	3.096	3.201
2.945	3.091	3.195
2.951	3.102	3.180
2.945	3.097	3.177
2.944	3.101	3.180
2.945	3.101	3.210
2.938	3.101	3.236
2.948	3.093	3.250
2.947	3.103	3.266
2.942	3.103	3.250
2.945	3.101	3.226
2.938	3.093	3.216
2.939	3.087	3.210
2.939	3.094	3.206
2.936	3.096	3.198
2.938	3.096	3.180
2.940	3.096	3.169
2.938	3.094	3.178
2.938	3.104	3.187
2.938	3.106	3.177
2.938	3.095	3.194
2.937	3.098	3.196
2.939	3.095	3.191
2.936	3.100	3.179
2.938	3.103	3.189
2.931	3.098	3.168
2.931	3.101	3.159
2.933	3.104	3.140
2.945	3.098	3.124
2.943	3.101	3.108
2.940	3.091	3.122
2.947	3.091	3.142
2.938	3.098	3.155
2.943	3.099	3.152
2.948	3.100	3.145
2.955	3.100	3.130
2.957	3.097	3.137
2.960	3.103	3.143
2.953	3.098	3.152
2.953	3.093	3.175
2.950	3.095	3.196
2.950	3.101	3.211
2.950	3.095	3.209
2.943	3.099	3.210
2.938	3.096	3.212
2.943	3.101	3.196
2.941	3.097	3.174
2.943	3.094	3.177
2.950	3.093	3.176
2.956	3.093	3.177
2.955	3.097	3.180
2.955	3.096	3.169
2.956	3.098	3.183
2.967	3.093	3.210
2.963	3.095	3.204
2.968	3.095	3.189
2.955	3.096	3.142
2.950	3.096	3.125
2.955	3.096	3.102
2.950	3.096	3.095
2.940	3.101	3.113
2.951	3.099	3.124
2.952	3.098	3.136
2.948	3.094	3.139
2.956	3.099	3.147
2.961	3.094	3.156
2.956	3.092	3.165
2.941	3.098	3.171
2.943	3.098	3.159
2.945	3.092	3.144
2.951	3.094	3.142
2.955	3.095	3.138
2.946	3.096	3.149
2.943	3.096	3.173
2.938	3.098	3.174
2.932	3.099	3.186
2.931	3.096	3.189
2.938	3.096	3.196
2.931	3.101	3.205
2.934	3.095	3.210
2.936	3.091	3.210
2.943	3.098	3.199
2.943	3.105	3.198
2.941	3.106	3.202
2.935	3.096	3.199
2.941	3.098	3.196
2.938	3.101	3.186
2.943	3.096	3.196
2.941	3.099	3.184
2.948	3.094	3.157
2.951	3.096	3.126
2.955	3.095	3.123
2.965	3.096	3.130
2.958	3.094	3.142
2.961	3.094	3.144
2.963	3.104	3.129
2.957	3.095	3.108
2.956	3.094	3.086
2.960	3.098	3.091
2.960	3.098	3.108
2.961	3.096	3.127
2.960	3.098	3.135
2.962	3.103	3.140
2.953	3.099	3.145
2.950	3.101	3.147
2.950	3.099	3.164
2.951	3.094	3.161
2.943	3.098	3.147
2.948	3.094	3.162
2.955	3.106	3.184
2.960	3.106	3.184
2.964	3.091	3.181
2.966	3.103	3.213
2.961	3.089	3.230
2.967	3.095	3.250
2.965	3.101	3.243
2.965	3.100	3.222
2.972	3.103	3.210
2.974	3.103	3.213
2.972	3.099	3.210
2.966	3.101	3.196
2.971	3.101	3.177
2.962	3.098	3.162
2.965	3.096	3.161
2.968	3.103	3.163
2.965	3.099	3.173
2.958	3.099	3.182
2.958	3.097	3.164
2.955	3.095	3.135
2.962	3.093	3.140
2.963	3.094	3.141
2.957	3.096	3.131
2.960	3.096	3.128
2.955	3.100	3.137
2.958	3.098	3.142
2.956	3.103	3.131
2.955	3.096	3.127
2.953	3.104	3.130
2.947	3.103	3.150
2.957	3.096	3.166
2.942	3.100	3.174
2.936	3.099	3.190
2.943	3.101	3.174
2.945	3.106	3.154
2.948	3.105	3.137
2.945	3.098	3.145
2.953	3.095	3.159
2.943	3.088	3.164
2.942	3.091	3.155
2.939	3.093	3.144
2.933	3.091	3.147
2.940	3.098	3.142
2.938	3.098	3.144
2.948	3.099	3.162
2.948	3.103	3.169
2.941	3.106	3.204
2.945	3.099	3.210
2.944	3.099	3.206
2.941	3.101	3.193
2.950	3.096	3.191
2.945	3.093	3.194
2.945	3.099	3.190
2.931	3.101	3.176
2.928	3.101	3.172
2.936	3.101	3.159
2.935	3.098	3.151
2.942	3.099	3.155
2.934	3.099	3.150
2.941	3.098	3.142
2.943	3.102	3.157
2.943	3.099	3.154
2.936	3.096	3.145
2.933	3.101	3.146
2.933	3.103	3.145
2.929	3.104	3.150
2.932	3.099	3.135
2.930	3.096	3.107
2.931	3.098	3.110
2.938	3.101	3.111
2.933	3.099	3.125
2.931	3.101	3.133
2.933	3.094	3.145
2.941	3.100	3.169
2.945	3.094	3.181
2.946	3.095	3.177
2.937	3.096	3.152
2.928	3.097	3.142
2.933	3.093	3.144
2.930	3.099	3.151
2.928	3.096	3.162
2.931	3.095	3.152
2.931	3.091	3.157
2.941	3.098	3.155
2.946	3.097	3.142
2.945	3.098	3.138
2.938	3.091	3.135
2.938	3.089	3.108
2.943	3.093	3.081
2.940	3.091	3.057
2.926	3.088	3.033
2.928	3.096	3.039
2.926	3.091	3.043
2.930	3.099	3.053
2.925	3.093	3.056
2.921	3.096	3.069
2.926	3.101	3.081
2.931	3.101	3.093
2.941	3.099	3.103
2.940	3.103	3.115
2.938	3.093	3.098
2.926	3.093	3.081
2.929	3.091	3.083
2.932	3.088	3.076
2.928	3.094	3.071
2.918	3.088	3.073
2.911	3.093	3.083
2.906	3.092	3.090
2.916	3.099	3.115
2.926	3.092	3.122
2.933	3.096	3.118
2.932	3.096	3.125
2.931	3.099	3.130
2.931	3.102	3.135
2.943	3.099	3.141
2.940	3.096	3.130
2.940	3.096	3.126
2.949	3.091	3.125
2.948	3.091	3.134
2.950	3.093	3.125
2.949	3.095	3.113
2.951	3.094	3.111
2.946	3.093	3.120
2.938	3.091	3.130
2.936	3.094	3.140
2.938	3.091	3.142
2.942	3.093	3.146
2.938	3.098	3.149
2.938	3.091	3.126
2.938	3.093	3.108
2.940	3.093	3.107
2.938	3.096	3.124
2.938	3.091	3.132
2.935	3.092	3.131
2.946	3.096	3.149
2.950	3.092	3.161
2.943	3.086	3.144
2.945	3.093	3.113
2.954	3.092	3.075
2.954	3.093	3.069
2.955	3.096	3.073
2.948	3.093	3.093
2.951	3.096	3.117
2.955	3.096	3.103
2.949	3.097	3.105
2.948	3.096	3.108
2.951	3.095	3.123
2.954	3.089	3.123
2.950	3.094	3.130
2.943	3.091	3.157
2.943	3.089	3.164
2.941	3.093	3.177
2.940	3.096	3.176
2.940	3.095	3.177
2.933	3.093	3.178
2.938	3.089	3.181
2.943	3.094	3.209
2.951	3.098	3.230
2.948	3.091	3.248
2.946	3.093	3.236
2.941	3.098	3.222
2.947	3.096	3.208
2.948	3.097	3.194
2.953	3.101	3.172
2.958	3.093	3.155
2.958	3.093	3.148
2.950	3.091	3.149
2.950	3.096	3.141
2.950	3.096	3.131
2.951	3.090	3.105
2.945	3.095	3.101
2.940	3.088	3.109
2.940	3.094	3.143
2.947	3.088	3.155
2.956	3.088	3.146
2.954	3.091	3.130
2.955	3.091	3.108
2.956	3.091	3.106
2.958	3.091	3.112
2.960	3.093	3.131
2.960	3.091	3.121
2.958	3.088	3.115
2.960	3.092	3.115
2.955	3.092	3.115
2.956	3.093	3.117
2.958	3.094	3.125
2.963	3.094	3.144
2.966	3.093	3.177
2.957	3.096	3.208
2.967	3.093	3.219
2.965	3.094	3.230
2.963	3.091	3.210
2.971	3.093	3.176
2.964	3.093	3.135
2.952	3.090	3.137
2.960	3.086	3.146
2.958	3.088	3.136
2.960	3.092	3.108
2.965	3.088	3.100
2.972	3.089	3.098
2.967	3.086	3.091
2.970	3.087	3.097
2.965	3.082	3.090
2.967	3.086	3.088
2.975	3.089	3.110
2.975	3.091	3.139
2.975	3.089	3.145
2.967	3.092	3.151
2.972	3.089	3.155
2.972	3.086	3.159
2.968	3.091	3.149
2.975	3.087	3.122
2.966	3.088	3.122
2.967	3.088	3.127
2.965	3.093	3.130
2.967	3.093	3.150
2.969	3.088	3.180
2.963	3.094	3.174
2.965	3.090	3.173
2.978	3.094	3.174
2.974	3.093	3.189
2.977	3.088	3.184
2.983	3.092	3.177
2.977	3.091	3.176
2.974	3.089	3.152
2.977	3.086	3.143
2.972	3.088	3.147
2.972	3.090	3.157
2.966	3.088	3.164
2.972	3.090	3.149
2.973	3.090	3.125
2.975	3.085	3.118
2.972	3.085	3.120
2.965	3.091	3.125
2.962	3.091	3.127
2.963	3.089	3.141
2.967	3.098	3.144
2.965	3.092	3.124
2.968	3.086	3.125
2.972	3.098	3.125
2.977	3.089	3.127
2.977	3.088	3.124
2.969	3.088	3.123
2.962	3.089	3.110
2.955	3.090	3.115
2.958	3.091	3.132
2.968	3.086	3.143
2.961	3.086	3.133
2.962	3.083	3.123
2.962	3.091	3.110
2.957	3.089	3.108
2.957	3.091	3.123
2.956	3.086	3.140
2.955	3.090	3.147
2.948	3.089	3.146
2.948	3.092	3.139
2.955	3.083	3.130
2.947	3.088	3.125
2.943	3.088	3.101
2.953	3.091	3.098
2.950	3.087	3.107
2.945	3.089	3.129
2.933	3.091	3.135
2.940	3.088	3.144
2.948	3.083	3.162
2.956	3.089	3.181
2.949	3.094	3.178
2.957	3.097	3.160
2.960	3.089	3.132
2.953	3.088	3.125
2.955	3.089	3.121
2.955	3.091	3.129
2.955	3.089	3.132
2.953	3.088	3.128
2.942	3.089	3.120
2.946	3.083	3.132
2.935	3.088	3.141
2.936	3.079	3.162
2.938	3.080	3.185
2.943	3.085	3.192
2.945	3.080	3.199
2.945	3.083	3.206
2.948	3.084	3.201
2.950	3.079	3.190
2.949	3.081	3.177
2.955	3.095	3.169
2.955	3.088	3.159
2.953	3.083	3.142
2.950	3.086	3.108
2.953	3.086	3.083
2.950	3.087	3.073
2.953	3.086	3.061
2.956	3.082	3.056
2.956	3.082	3.064
2.951	3.083	3.056
2.950	3.088	3.075
2.942	3.089	3.095
2.936	3.083	3.100
2.938	3.087	3.099
2.935	3.088	3.073
2.943	3.082	3.038
2.947	3.083	3.022
2.953	3.089	3.030
2.945	3.087	3.032
2.943	3.085	3.037
2.946	3.082	3.062
2.938	3.088	3.105
2.948	3.086	3.122
2.950	3.082	3.137
2.938	3.083	3.115
2.935	3.088	3.115
2.948	3.086	3.124
2.945	3.084	3.134
2.948	3.089	3.131
2.953	3.087	3.145
2.955	3.086	3.154
2.946	3.082	3.152
2.950	3.085	3.160
2.948	3.093	3.154
2.956	3.086	3.133
2.951	3.082	3.125
2.953	3.089	3.118
2.953	3.086	3.120
2.948	3.086	3.128
2.938	3.089	3.151
2.943	3.088	3.171
2.943	3.084	3.162
2.936	3.084	3.151
2.940	3.087	3.141
2.939	3.090	3.162
2.945	3.086	3.167
2.948	3.087	3.163
2.951	3.089	3.161
2.950	3.086	3.166
2.950	3.084	3.183
2.955	3.086	3.208
2.950	3.084	3.202
2.942	3.083	3.191
2.946	3.089	3.194
2.949	3.092	3.228
2.941	3.088	3.247
2.951	3.084	3.235
2.950	3.089	3.238
2.946	3.089	3.248
2.943	3.089	3.243
2.945	3.086	3.226
2.948	3.088	3.202
2.940	3.088	3.211
2.936	3.090	3.220
2.940	3.086	3.221
2.943	3.086	3.213
2.950	3.091	3.205
2.946	3.095	3.191
2.940	3.089	3.178
2.943	3.093	3.196
2.955	3.091	3.206
2.951	3.091	3.210
2.947	3.091	3.197
2.948	3.091	3.188
2.946	3.088	3.176
2.933	3.088	3.171
2.943	3.091	3.165
2.943	3.094	3.162
2.950	3.093	3.162
2.947	3.085	3.159
2.947	3.090	3.162
2.943	3.096	3.191
2.948	3.096	3.223
2.948	3.091	3.233
2.948	3.094	3.232
2.948	3.091	3.219
2.943	3.093	3.226
2.953	3.087	3.234
2.951	3.096	3.229
2.949	3.089	3.221
2.949	3.089	3.225
2.948	3.089	3.233
2.943	3.088	3.248
2.941	3.086	3.253
2.936	3.088	3.260
2.940	3.094	3.262
2.940	3.089	3.242
2.941	3.096	3.232
2.951	3.096	3.222
2.952	3.097	3.204
2.957	3.098	3.201
2.963	3.091	3.201
2.957	3.094	3.184
2.958	3.089	3.179
2.957	3.092	3.186
2.960	3.091	3.193
2.958	3.091	3.223
2.952	3.089	3.240
2.956	3.089	3.262
2.958	3.088	3.261
2.956	3.091	3.264
2.955	3.091	3.264
2.948	3.093	3.253
2.953	3.089	3.233
2.945	3.087	3.226
2.946	3.089	3.225
2.947	3.088	3.218
2.946	3.080	3.224
2.955	3.091	3.226
2.950	3.089	3.228
2.955	3.089	3.225
2.955	3.089	3.210
2.950	3.093	3.211
2.953	3.100	3.189
2.953	3.093	3.184
2.958	3.096	3.188
2.961	3.099	3.207
2.967	3.096	3.211
2.965	3.091	3.233
2.956	3.097	3.240
2.962	3.096	3.240
2.967	3.092	3.234
2.970	3.092	3.253
2.973	3.096	3.249
2.971	3.088	3.255
2.973	3.088	3.279
2.962	3.091	3.306
2.953	3.089	3.328
2.958	3.089	3.327
2.960	3.094	3.336
2.962	3.097	3.355
2.963	3.088	3.375
2.966	3.099	3.365
2.961	3.093	3.338
2.961	3.094	3.322
2.957	3.090	3.314
2.963	3.096	3.299
2.958	3.096	3.284
2.952	3.094	3.270
2.954	3.096	3.249
2.950	3.098	3.249
2.951	3.091	3.248
2.953	3.099	3.247
2.957	3.091	3.239
2.960	3.096	3.225
2.957	3.099	3.212
2.960	3.093	3.215
2.967	3.093	3.244
2.962	3.098	3.253
2.965	3.096	3.257
2.968	3.095	3.242
2.968	3.086	3.230
2.962	3.099	3.210
2.965	3.101	3.199
2.965	3.097	3.176
2.962	3.096	3.169
2.955	3.096	3.173
2.951	3.090	3.190
2.948	3.093	3.181
2.948	3.096	3.184
2.958	3.096	3.177
2.958	3.090	3.179
2.965	3.090	3.200
2.965	3.096	3.210
2.967	3.091	3.207
2.972	3.097	3.203
2.966	3.094	3.220
2.965	3.093	3.248
2.960	3.098	3.275
2.958	3.096	3.281
2.962	3.096	3.274
2.963	3.096	3.240
2.957	3.098	3.233
2.960	3.099	3.233
2.958	3.099	3.257
2.962	3.098	3.270
2.957	3.099	3.290
2.960	3.101	3.306
2.959	3.101	3.311
2.970	3.100	3.294
2.975	3.099	3.289
2.970	3.099	3.261
2.970	3.099	3.238
2.967	3.103	3.235
2.964	3.106	3.246
2.967	3.106	3.254
2.972	3.101	3.247
2.971	3.106	3.240
2.965	3.106	3.248
2.970	3.103	3.260
2.960	3.109	3.253
2.965	3.100	3.226
2.969	3.104	3.252
2.969	3.103	3.265
2.967	3.104	3.279
2.968	3.108	3.279
2.955	3.101	3.272
2.963	3.105	3.265
2.960	3.106	3.256
2.960	3.103	3.251
2.966	3.095	3.238
2.960	3.103	3.228
2.960	3.101	3.211
2.965	3.102	3.214
2.964	3.103	3.219
2.966	3.103	3.216
2.963	3.099	3.205
2.962	3.101	3.204
2.970	3.098	3.210
2.970	3.096	3.226
2.970	3.099	3.232
2.969	3.099	3.265
2.970	3.099	3.311
2.972	3.101	3.316
2.971	3.099	3.310
2.967	3.097	3.296
2.962	3.097	3.279
2.960	3.095	3.280
2.956	3.096	3.269
2.960	3.093	3.230
2.960	3.091	3.209
2.960	3.096	3.220
2.958	3.099	3.248
2.966	3.095	3.253
2.970	3.099	3.248
2.968	3.101	3.254
2.968	3.099	3.267
2.968	3.102	3.268
2.962	3.100	3.262
2.967	3.093	3.248
2.967	3.098	3.238
2.969	3.103	3.230
2.967	3.099	3.217
2.960	3.098	3.230
2.962	3.103	3.246
2.965	3.100	3.252
2.961	3.096	3.263
2.957	3.103	3.257
2.960	3.101	3.250
2.960	3.102	3.261
2.955	3.103	3.250
2.958	3.109	3.246
2.962	3.103	3.228
2.965	3.099	3.200
2.970	3.101	3.194
2.973	3.101	3.210
2.977	3.106	3.269
2.977	3.105	3.294
2.983	3.103	3.289
2.980	3.105	3.267
2.984	3.106	3.248
2.983	3.104	3.220
2.992	3.105	3.196
2.992	3.100	3.176
2.993	3.099	3.164
2.985	3.104	3.166
2.985	3.101	3.196
2.982	3.101	3.206
2.977	3.101	3.207
2.970	3.103	3.196
2.964	3.101	3.171
2.971	3.103	3.157
2.982	3.105	3.137
2.985	3.100	3.123
2.980	3.104	3.123
2.974	3.102	3.125
2.980	3.103	3.117
2.974	3.101	3.125
2.985	3.103	3.138
2.984	3.098	3.147
2.983	3.096	3.151
2.987	3.106	3.149
2.985	3.105	3.145
2.983	3.101	3.136
2.977	3.098	3.128
2.982	3.101	3.137
2.987	3.100	3.167
2.990	3.097	3.197
2.985	3.101	3.189
2.983	3.099	3.171
2.980	3.106	3.137
2.974	3.096	3.132
2.969	3.098	3.139
2.965	3.095	3.152
2.965	3.098	3.179
2.970	3.101	3.192
2.976	3.101	3.182
2.981	3.101	3.188
2.968	3.101	3.191
2.980	3.101	3.189
2.977	3.098	3.189
2.982	3.098	3.159
2.986	3.101	3.130
2.982	3.101	3.123
2.982	3.101	3.143
2.983	3.101	3.142
2.979	3.101	3.136
2.976	3.103	3.148
2.977	3.103	3.149
2.975	3.106	3.147
2.977	3.103	3.138
2.975	3.101	3.142
2.972	3.100	3.145
2.977	3.101	3.162
2.976	3.103	3.187
2.978	3.101	3.209
2.976	3.103	3.218
2.977	3.101	3.221
2.987	3.098	3.211
2.977	3.099	3.188
2.979	3.096	3.172
2.982	3.098	3.161
2.989	3.098	3.156
3.001	3.102	3.157
2.991	3.096	3.166
2.987	3.101	3.171
2.983	3.098	3.174
2.985	3.103	3.186
2.989	3.101	3.213
2.984	3.101	3.228
2.989	3.105	3.240
2.994	3.103	3.222
2.990	3.101	3.199
2.984	3.106	3.188
2.982	3.102	3.199
2.992	3.106	3.228
2.982	3.097	3.228
2.995	3.101	3.210
2.992	3.106	3.224
2.987	3.103	3.243
2.990	3.105	3.252
2.993	3.103	3.253
2.996	3.109	3.260
2.989	3.108	3.243
2.989	3.098	3.231
2.992	3.101	3.210
2.982	3.104	3.213
2.982	3.106	3.225
2.977	3.102	3.233
2.972	3.106	3.247
2.980	3.106	3.265
2.981	3.106	3.279
2.986	3.106	3.286
2.985	3.105	3.271
2.982	3.103	3.264
2.982	3.106	3.277
2.980	3.108	3.279
2.982	3.098	3.279
2.985	3.101	3.281
2.995	3.107	3.271
2.994	3.109	3.270
2.983	3.105	3.265
2.982	3.105	3.250
2.967	3.106	3.252
2.975	3.105	3.269
2.977	3.106	3.308
2.977	3.106	3.342
2.975	3.105	3.350
2.975	3.108	3.350
2.975	3.106	3.323
2.976	3.104	3.308
2.977	3.102	3.294
2.982	3.105	3.304
2.984	3.106	3.307
2.987	3.103	3.316
2.984	3.106	3.316
2.987	3.105	3.315
2.990	3.103	3.309
2.984	3.105	3.297
2.989	3.100	3.268
2.997	3.103	3.235
3.000	3.103	3.222
3.004	3.103	3.220
2.999	3.107	3.231
3.004	3.106	3.246
3.009	3.101	3.253
3.009	3.110	3.265
2.999	3.113	3.265
2.995	3.106	3.280
2.989	3.108	3.292
2.987	3.111	3.308
2.992	3.115	3.323
2.995	3.111	3.328
3.002	3.112	3.340
2.999	3.109	3.339
3.004	3.107	3.328
3.000	3.106	3.288
2.987	3.109	3.277
2.987	3.115	3.282
2.987	3.113	3.289
2.990	3.105	3.287
2.992	3.110	3.283
2.987	3.106	3.282
2.987	3.107	3.286
2.990	3.113	3.298
2.986	3.108	3.299
2.990	3.114	3.299
2.982	3.107	3.304
2.982	3.107	3.298
2.982	3.101	3.296
2.992	3.108	3.287
2.987	3.108	3.262
2.992	3.111	3.235
2.985	3.105	3.212
2.986	3.103	3.184
2.991	3.105	3.176
2.994	3.106	3.176
2.985	3.111	3.178
2.982	3.106	3.187
2.980	3.106	3.176
2.977	3.112	3.176
2.981	3.111	3.164
2.963	3.106	3.154
2.968	3.106	3.154
2.968	3.111	3.169
2.970	3.103	3.176
2.968	3.102	3.174
2.977	3.106	3.199
2.982	3.103	3.197
2.977	3.105	3.203
2.977	3.110	3.198
2.977	3.111	3.181
2.976	3.107	3.188
2.980	3.103	3.193
2.975	3.111	3.193
2.977	3.101	3.188
2.978	3.106	3.170
2.972	3.105	3.140
2.970	3.106	3.124
2.972	3.103	3.119
2.975	3.103	3.122
2.977	3.103	3.132
2.972	3.108	3.141
2.972	3.107	3.152
2.968	3.106	3.142
2.971	3.112	3.127
2.977	3.108	3.140
2.973	3.106	3.147
2.977	3.103	3.164
2.982	3.106	3.173
2.987	3.106	3.157
2.983	3.101	3.141
2.975	3.099	3.152
2.972	3.103	3.166
2.970	3.106	3.183
2.975	3.102	3.201
2.973	3.097	3.209
2.979	3.103	3.198
2.977	3.106	3.191
2.981	3.109	3.164
2.978	3.106	3.160
2.975	3.105	3.160
2.977	3.106	3.162
2.978	3.103	3.174
2.969	3.106	3.162
2.965	3.106	3.149
2.957	3.103	3.145
2.955	3.102	3.140
2.955	3.104	3.135
2.956	3.105	3.140
2.958	3.109	3.149
2.963	3.105	3.144
2.970	3.105	3.132
2.972	3.106	3.123
2.973	3.108	3.107
2.969	3.106	3.115
2.970	3.108	3.121
2.970	3.099	3.132
2.977	3.103	3.162
2.972	3.103	3.177
2.969	3.104	3.186
2.965	3.102	3.177
2.977	3.101	3.108
2.968	3.103	3.082
2.973	3.101	3.066
2.980	3.105	3.084
2.979	3.096	3.091
2.988	3.098	3.081
2.985	3.103	3.088
2.983	3.101	3.090
2.988	3.101	3.085
2.987	3.107	3.088
2.977	3.106	3.100
2.982	3.103	3.116
2.975	3.096	3.132
2.972	3.103	3.182
2.968	3.103	3.218
2.969	3.106	3.231
2.968	3.105	3.223
2.961	3.103	3.206
2.960	3.100	3.191
2.968	3.106	3.178
2.967	3.106	3.172
2.962	3.106	3.174
2.958	3.105	3.176
2.964	3.106	3.165
2.960	3.104	3.162
2.955	3.108	3.175
2.961	3.105	3.202
2.962	3.106	3.240
2.963	3.095	3.260
2.965	3.103	3.260
2.972	3.100	3.256
2.972	3.101	3.254
2.963	3.101	3.243
2.957	3.100	3.212
2.963	3.107	3.176
2.958	3.096	3.166
2.960	3.098	3.137
2.963	3.101	3.106
2.963	3.101	3.104
2.970	3.101	3.107
2.971	3.102	3.115
2.981	3.103	3.127
2.972	3.100	3.139
2.970	3.098	3.159
2.965	3.101	3.194
2.970	3.097	3.207
2.970	3.097	3.206
2.970	3.107	3.186
2.977	3.099	3.169
2.980	3.105	3.147
2.978	3.104	3.140
2.977	3.104	3.124
2.985	3.103	3.115
2.980	3.101	3.093
2.972	3.101	3.084
2.962	3.105	3.091
2.970	3.106	3.096
2.967	3.101	3.100
2.974	3.101	3.100
2.975	3.104	3.109
2.969	3.101	3.120
2.972	3.103	3.143
2.968	3.103	3.150
2.965	3.101	3.154
2.963	3.098	3.151
2.961	3.105	3.177
2.965	3.104	3.175
2.962	3.098	3.179
2.973	3.101	3.182
2.965	3.104	3.165
2.968	3.106	3.149
2.968	3.107	3.137
2.967	3.105	3.125
2.961	3.103	3.131
2.960	3.105	3.139
2.970	3.106	3.149
2.977	3.103	3.155
2.968	3.101	3.159
2.965	3.101	3.165
2.960	3.101	3.168
2.953	3.101	3.153
2.965	3.096	3.149
2.963	3.107	3.164
2.965	3.103	3.190
2.962	3.101	3.211
2.957	3.103	3.210
2.963	3.106	3.201
2.955	3.106	3.179
2.958	3.108	3.181
2.963	3.105	3.216
2.958	3.105	3.240
2.955	3.110	3.255
2.957	3.106	3.259
2.948	3.106	3.247
2.955	3.101	3.242
2.959	3.103	3.236
2.962	3.110	3.240
2.962	3.106	3.243
2.961	3.106	3.248
2.955	3.106	3.262
2.951	3.096	3.263
2.960	3.102	3.267
2.960	3.101	3.262
2.961	3.098	3.250
2.961	3.106	3.240
2.957	3.109	3.247
2.960	3.106	3.265
2.968	3.097	3.260
2.970	3.104	3.243
2.973	3.096	3.231
2.970	3.101	3.246
2.970	3.103	3.220
2.971	3.096	3.186
2.978	3.103	3.171
2.979	3.103	3.177
2.987	3.104	3.191
2.980	3.103	3.189
2.977	3.101	3.175
2.977	3.095	3.170
2.977	3.101	3.167
2.972	3.104	3.165
2.975	3.106	3.166
2.971	3.101	3.169
2.967	3.099	3.171
2.970	3.099	3.160
2.968	3.100	3.135
2.963	3.103	3.142
2.963	3.100	3.151
2.962	3.102	3.156
2.967	3.105	3.139
2.968	3.106	3.132
2.968	3.104	3.118
2.969	3.107	3.118
2.972	3.101	3.136
2.980	3.107	3.147
2.977	3.108	3.173
2.980	3.103	3.201
2.979	3.109	3.209
2.982	3.106	3.213
2.977	3.106	3.202
2.981	3.110	3.172
2.971	3.111	3.173
2.975	3.106	3.167
2.978	3.109	3.165
2.982	3.109	3.169
2.992	3.101	3.167
2.990	3.106	3.170
2.995	3.106	3.181
2.991	3.105	3.188
2.990	3.103	3.221
2.983	3.106	3.230
2.991	3.108	3.210
2.992	3.106	3.180
2.987	3.111	3.178
2.992	3.103	3.181
2.992	3.105	3.184
3.001	3.107	3.183
3.000	3.111	3.181
2.996	3.106	3.187
2.996	3.111	3.196
2.989	3.110	3.253
2.992	3.106	3.279
2.999	3.106	3.297
3.007	3.103	3.311
3.007	3.106	3.281
2.999	3.101	3.259
2.994	3.103	3.257
2.995	3.109	3.259
2.989	3.100	3.254
2.994	3.105	3.254
2.992	3.111	3.263
2.997	3.111	3.259
2.990	3.106	3.269
2.985	3.106	3.282
2.987	3.106	3.308
2.990	3.106	3.298
2.996	3.113	3.291
2.995	3.108	3.290
2.992	3.110	3.295
2.997	3.107	3.314
2.997	3.106	3.311
2.992	3.108	3.274
2.988	3.106	3.256
2.982	3.113	3.257
2.975	3.105	3.285
2.978	3.108	3.311
2.978	3.108	3.316
2.977	3.110	3.309
2.972	3.115	3.308
2.977	3.116	3.289
2.980	3.106	3.277
2.980	3.108	3.266
2.982	3.114	3.250
2.981	3.112	3.257
2.985	3.111	3.250
2.982	3.114	3.233
2.992	3.112	3.221
2.987	3.111	3.216
2.989	3.115	3.218
2.989	3.109	3.227
2.994	3.106	3.220
2.997	3.108	3.201
2.995	3.105	3.209
2.996	3.106	3.230
2.995	3.110	3.238
2.992	3.108	3.248
2.990	3.107	3.259
2.992	3.106	3.261
3.005	3.105	3.250
3.009	3.106	3.252
3.009	3.109	3.257
3.015	3.105	3.264
3.010	3.109	3.262
3.005	3.106	3.239
3.009	3.106	3.226
3.019	3.107	3.210
3.019	3.105	3.180
3.011	3.111	3.162
3.014	3.108	3.143
3.017	3.108	3.155
3.019	3.111	3.182
3.020	3.106	3.206
3.012	3.106	3.238
3.009	3.105	3.247
3.002	3.105	3.253
3.006	3.110	3.275
3.004	3.106	3.279
3.002	3.108	3.287
2.996	3.107	3.268
3.002	3.107	3.248
3.003	3.102	3.248
3.012	3.106	3.226
3.005	3.106	3.186
3.004	3.106	3.164
3.007	3.105	3.171
3.002	3.106	3.211
3.001	3.105	3.230
3.004	3.108	3.252
3.005	3.106	3.272
3.010	3.106	3.250
3.001	3.103	3.250
3.002	3.107	3.264
3.002	3.103	3.277
3.005	3.106	3.274
2.992	3.106	3.272
2.986	3.103	3.277
2.982	3.105	3.277
2.988	3.108	3.279
2.997	3.106	3.265
2.986	3.111	3.262
2.985	3.106	3.277
2.997	3.101	3.281
2.994	3.108	3.278
2.994	3.107	3.289
2.996	3.104	3.290
3.002	3.105	3.284
3.005	3.106	3.281
3.005	3.108	3.277
3.012	3.108	3.267
3.007	3.106	3.248
3.004	3.106	3.235
3.004	3.105	3.238
3.011	3.110	3.248
3.011	3.103	3.249
3.011	3.106	3.261
3.012	3.107	3.262
3.010	3.103	3.260
3.010	3.105	3.265
3.009	3.105	3.279
3.009	3.103	3.301
3.014	3.107	3.297
3.012	3.106	3.298
3.011	3.105	3.299
3.012	3.106	3.284
3.014	3.109	3.279
3.009	3.106	3.279
3.009	3.107	3.301
3.012	3.105	3.301
3.014	3.114	3.289
3.009	3.103	3.277
3.002	3.106	3.271
2.994	3.108	3.263
3.004	3.109	3.248
3.009	3.106	3.249
3.013	3.106	3.265
3.010	3.108	3.271
3.011	3.110	3.255
3.009	3.105	3.257
3.014	3.111	3.264
3.009	3.117	3.265
3.015	3.112	3.292
3.014	3.107	3.299
3.017	3.113	3.281
3.020	3.117	3.266
3.016	3.118	3.264
3.014	3.115	3.274
3.007	3.108	3.281
3.010	3.114	3.271
3.007	3.113	3.251
3.006	3.110	3.238
3.007	3.111	3.226
3.012	3.110	3.226
3.019	3.116	3.230
3.012	3.111	3.228
3.009	3.113	3.216
3.012	3.112	3.212
3.015	3.115	3.213
3.014	3.118	3.245
3.014	3.106	3.265
3.019	3.108	3.265
3.026	3.110	3.265
3.027	3.111	3.262
3.030	3.113	3.265
3.021	3.110	3.265
3.014	3.111	3.282
3.010	3.106	3.282
3.011	3.112	3.284
3.003	3.110	3.291
3.007	3.115	3.284
3.007	3.112	3.281
3.013	3.113	3.275
3.009	3.112	3.232
3.007	3.112	3.209
2.997	3.113	3.184
3.010	3.120	3.174
3.012	3.115	3.177
3.008	3.117	3.174
3.009	3.114	3.156
3.014	3.115	3.157
3.010	3.113	3.162
3.005	3.113	3.160
2.997	3.121	3.158
3.004	3.123	3.162
3.007	3.110	3.176
3.007	3.115	3.200
3.009	3.110	3.196
3.010	3.108	3.199
3.016	3.113	3.210
3.012	3.113	3.216
3.009	3.111	3.215
3.009	3.107	3.216
3.012	3.110	3.231
3.010	3.118	3.219
3.009	3.116	3.204
3.006	3.118	3.194
3.004	3.113	3.178
3.007	3.117	3.173
3.012	3.125	3.181
3.019	3.125	3.225
3.019	3.128	3.233
3.027	3.119	3.232
3.019	3.115	3.234
3.016	3.115	3.250
3.011	3.116	3.252
3.024	3.120	3.255
3.011	3.118	3.244
3.009	3.119	3.230
3.012	3.110	3.221
3.017	3.117	3.231
3.019	3.123	3.234
3.020	3.115	3.248
3.009	3.115	3.267
3.010	3.115	3.266
3.009	3.119	3.264
2.999	3.110	3.265
3.006	3.110	3.265
2.999	3.120	3.255
2.999	3.115	3.235
2.997	3.114	3.218
2.995	3.111	3.223
2.997	3.116	3.228
2.997	3.115	3.234
2.994	3.118	3.233
2.992	3.115	3.248
2.997	3.118	3.269
3.008	3.111	3.281
3.009	3.113	3.264
3.007	3.117	3.265
3.000	3.115	3.267
2.992	3.116	3.291
2.989	3.113	3.300
2.984	3.116	3.282
2.987	3.120	3.262
2.982	3.115	3.257
2.993	3.111	3.260
3.002	3.115	3.257
2.997	3.111	3.277
3.000	3.121	3.304
2.999	3.121	3.313
3.002	3.120	3.307
3.004	3.121	3.318
3.002	3.123	3.328
2.998	3.121	3.347
2.988	3.120	3.350
2.991	3.118	3.339
2.992	3.117	3.330
2.992	3.115	3.297
2.989	3.120	3.264
2.986	3.121	3.245
2.982	3.120	3.239
2.980	3.121	3.241
2.983	3.111	3.231
2.979	3.120	3.218
2.977	3.116	3.232
2.980	3.124	3.240
2.985	3.115	3.248
2.989	3.113	3.248
2.989	3.109	3.240
2.985	3.113	3.235
2.985	3.111	3.229
2.982	3.109	3.226
2.975	3.116	3.210
2.963	3.112	3.191
2.965	3.107	3.177
2.960	3.115	3.189
2.960	3.115	3.191
2.963	3.123	3.205
2.960	3.123	3.208
2.963	3.115	3.226
2.968	3.119	3.234
2.972	3.117	3.220
2.964	3.114	3.210
2.975	3.118	3.203
2.975	3.112	3.179
2.977	3.119	3.164
2.974	3.111	3.177
2.967	3.115	3.194
2.970	3.118	3.206
2.970	3.121	3.220
2.972	3.115	3.220
2.975	3.110	3.232
2.975	3.121	3.240
2.977	3.120	3.230
2.972	3.120	3.217
2.975	3.118	3.221
2.980	3.115	3.224
2.990	3.116	3.203
2.982	3.111	3.173
2.975	3.116	3.161
2.966	3.115	3.166
2.967	3.111	3.185
2.977	3.115	3.211
2.977	3.118	3.230
2.977	3.115	3.245
2.975	3.115	3.247
2.972	3.108	3.229
2.971	3.113	3.226
2.966	3.113	3.216
2.964	3.115	3.204
2.966	3.114	3.196
2.965	3.108	3.179
2.958	3.108	3.181
2.957	3.110	3.174
2.955	3.112	3.157
2.945	3.111	3.171
2.946	3.108	3.194
2.952	3.110	3.203
2.962	3.106	3.198
2.965	3.113	3.177
2.962	3.108	3.153
2.960	3.110	3.150
2.958	3.105	3.143
2.950	3.107	3.151
2.957	3.107	3.150
2.956	3.106	3.165
2.960	3.106	3.183
2.952	3.105	3.218
2.960	3.106	3.220
2.956	3.104	3.201
2.957	3.106	3.189
2.957	3.106	3.173
2.956	3.106	3.169
2.950	3.107	3.152
2.951	3.106	3.135
2.942	3.103	3.124
2.945	3.111	3.122
2.943	3.111	3.118
2.948	3.106	3.125
2.943	3.110	3.122
2.940	3.113	3.122
2.948	3.105	3.120
2.950	3.109	3.124
2.951	3.107	3.130
2.950	3.111	3.145
2.956	3.107	3.150
2.957	3.107	3.155
2.958	3.104	3.176
2.955	3.108	3.196
2.960	3.109	3.184
2.955	3.108	3.181
2.955	3.106	3.184
2.954	3.106	3.177
2.956	3.105	3.169
2.952	3.110	3.168
2.960	3.108	3.153
2.955	3.113	3.145
2.962	3.116	3.150
2.955	3.114	3.149
2.953	3.104	3.155
2.953	3.108	3.170
2.956	3.108	3.176
2.955	3.106	3.151
2.955	3.112	3.110
2.956	3.103	3.114
2.957	3.102	3.130
2.952	3.106	3.162
2.955	3.106	3.177
2.962	3.113	3.184
2.955	3.106	3.179
2.956	3.105	3.169
2.955	3.108	3.172
2.951	3.111	3.177
2.955	3.108	3.179
2.953	3.113	3.179
2.955	3.112	3.174
2.958	3.108	3.159
2.965	3.105	3.177
2.960	3.112	3.194
2.961	3.108	3.198
2.960	3.109	3.207
2.958	3.107	3.212
2.965	3.109	3.210
2.963	3.109	3.226
2.955	3.113	3.223
2.955	3.108	3.230
2.955	3.108	3.230
2.955	3.108	3.229
2.956	3.111	3.221
2.954	3.108	3.209
2.945	3.105	3.185
2.948	3.115	3.162
2.953	3.105	3.159
2.948	3.106	3.164
2.945	3.112	3.196
2.947	3.108	3.224
2.950	3.108	3.241
2.953	3.111	3.255
2.957	3.113	3.262
2.959	3.111	3.249
2.970	3.111	3.245
2.970	3.114	3.232
2.965	3.111	3.231
2.965	3.106	3.223
2.964	3.113	3.206
2.960	3.111	3.199
2.960	3.104	3.186
2.961	3.111	3.164
2.956	3.110	3.167
2.957	3.118	3.179
2.957	3.115	3.181
2.950	3.110	3.181
2.955	3.115	3.197
2.962	3.108	3.225
2.965	3.112	3.233
2.967	3.111	3.238
2.969	3.110	3.230
2.967	3.106	3.247
2.970	3.113	3.256
2.967	3.111	3.255
2.974	3.109	3.253
2.975	3.111	3.252
2.972	3.113	3.257
2.975	3.111	3.264
2.968	3.111	3.265
2.974	3.113	3.267
2.974	3.112	3.265
2.975	3.115	3.272
2.972	3.112	3.281
2.967	3.111	3.270
2.972	3.114	3.260
2.967	3.117	3.260
2.972	3.111	3.277
2.978	3.118	3.293
2.970	3.118	3.291
2.960	3.113	3.277
2.963	3.113	3.281
2.967	3.106	3.277
2.970	3.113	3.259
2.972	3.113	3.248
2.965	3.106	3.228
2.968	3.116	3.215
2.966	3.116	3.220
2.959	3.112	3.243
2.960	3.106	3.249
2.967	3.113	3.247
2.972	3.112	3.238
2.975	3.106	3.238
2.974	3.110	3.244
2.965	3.115	3.246
2.965	3.105	3.242
2.965	3.108	3.245
2.967	3.111	3.245
2.967	3.110	3.246
2.972	3.108	3.250
2.970	3.115	3.256
2.967	3.118	3.258
2.970	3.115	3.252
2.975	3.116	3.259
2.977	3.114	3.274
2.982	3.108	3.295
2.983	3.111	3.284
2.978	3.113	3.269
2.980	3.110	3.263
2.977	3.108	3.254
2.970	3.111	3.242
2.975	3.109	3.233
2.977	3.105	3.223
2.977	3.111	3.246
2.983	3.108	3.282
2.986	3.109	3.302
2.982	3.116	3.316
2.990	3.116	3.316
2.990	3.111	3.304
2.989	3.116	3.289
2.992	3.106	3.265
2.981	3.108	3.253
2.982	3.111	3.252
2.980	3.116	3.245
2.977	3.111	3.228
2.974	3.114	3.204
2.982	3.112	3.188
2.987	3.105	3.200
2.987	3.113	3.210
2.991	3.114	3.218
2.997	3.115	3.236
2.992	3.115	3.233
2.994	3.119	3.243
3.002	3.118	3.242
3.000	3.110	3.250
3.001	3.118	3.245
3.002	3.118	3.230
2.999	3.109	3.230
2.994	3.109	3.221
2.991	3.111	3.219
2.989	3.108	3.231
3.000	3.116	3.256
2.990	3.113	3.262
2.997	3.112	3.255
2.994	3.113	3.244
2.992	3.115	3.237
2.987	3.111	3.259
2.997	3.113	3.297
2.989	3.111	3.320
2.992	3.107	3.314
3.000	3.105	3.292
2.991	3.109	3.251
2.979	3.106	3.242
2.990	3.109	3.233
2.987	3.105	3.211
2.985	3.115	3.199
2.984	3.117	3.180
2.996	3.115	3.179
2.992	3.120	3.187
2.997	3.118	3.197
2.998	3.112	3.196
2.994	3.113	3.204
2.995	3.119	3.235
2.992	3.115	3.229
2.995	3.115	3.223
3.002	3.115	3.206
3.004	3.117	3.204
3.004	3.115	3.201
3.002	3.118	3.206
2.996	3.121	3.210
2.992	3.110	3.220
3.002	3.110	3.220
2.999	3.114	3.210
2.992	3.112	3.210
2.997	3.116	3.230
3.004	3.115	3.232
3.009	3.115	3.225
3.007	3.121	3.226
3.004	3.112	3.233
3.003	3.112	3.237
3.004	3.112	3.245
3.007	3.115	3.240
3.009	3.118	3.239
3.009	3.117	3.245
3.006	3.106	3.247
3.000	3.116	3.242
2.995	3.113	3.240
2.995	3.108	3.247
2.992	3.113	3.258
3.002	3.118	3.265
3.002	3.118	3.274
3.009	3.112	3.300
3.014	3.113	3.333
3.021	3.117	3.318
3.024	3.113	3.295
3.019	3.115	3.284
3.015	3.111	3.277
3.009	3.111	3.253
3.016	3.114	3.228
3.016	3.115	3.231
3.013	3.110	3.238
3.019	3.113	3.242
3.016	3.113	3.233
3.026	3.111	3.236
3.027	3.108	3.267
3.026	3.110	3.287
3.014	3.110	3.321
3.016	3.113	3.333
3.014	3.118	3.335
3.012	3.116	3.345
3.016	3.115	3.338
3.019	3.110	3.323
3.017	3.111	3.311
3.015	3.120	3.281
3.015	3.113	3.250
3.010	3.113	3.240
3.009	3.113	3.235
3.009	3.106	3.236
3.005	3.108	3.235
3.011	3.112	3.248
3.019	3.113	3.267
3.021	3.114	3.281
3.030	3.110	3.284
3.032	3.109	3.283
3.028	3.117	3.281
3.031	3.111	3.294
3.026	3.115	3.292
3.021	3.113	3.289
3.026	3.118	3.282
3.026	3.108	3.285
3.016	3.118	3.265
3.010	3.112	3.252
3.008	3.112	3.237
3.000	3.108	3.215
3.009	3.117	3.208
3.009	3.121	3.191
3.014	3.113	3.170
3.011	3.115	3.162
3.014	3.123	3.176
3.011	3.126	3.196
3.011	3.118	3.218
3.012	3.108	3.240
3.006	3.120	3.250
3.009	3.115	3.248
3.014	3.118	3.221
3.006	3.121	3.199
3.011	3.116	3.196
3.007	3.119	3.200
3.002	3.112	3.208
3.003	3.118	3.206
3.003	3.112	3.209
3.001	3.114	3.210
2.999	3.115	3.201
3.004	3.113	3.206
3.017	3.116	3.245
3.021	3.113	3.262
3.017	3.112	3.276
3.014	3.121	3.268
3.010	3.119	3.263
3.006	3.116	3.240
3.000	3.115	3.217
3.006	3.110	3.215
3.011	3.113	3.219
3.007	3.113	3.211
3.006	3.116	3.212
3.009	3.115	3.208
3.009	3.108	3.220
3.012	3.110	3.240
3.017	3.108	3.255
3.016	3.109	3.257
3.019	3.111	3.248
3.014	3.115	3.221
3.012	3.111	3.211
3.013	3.113	3.200
3.007	3.110	3.189
3.005	3.109	3.182
3.008	3.111	3.187
3.001	3.118	3.194
2.996	3.112	3.196
3.004	3.112	3.185
3.004	3.115	3.169
3.002	3.111	3.184
3.002	3.113	3.196
2.999	3.111	3.196
3.000	3.114	3.198
3.002	3.111	3.210
3.011	3.111	3.197
3.010	3.109	3.207
3.011	3.115	3.253
3.016	3.115	3.264
3.024	3.110	3.267
3.019	3.113	3.249
3.014	3.113	3.225
3.009	3.113	3.199
3.012	3.113	3.168
3.009	3.105	3.141
3.006	3.110	3.136
3.010	3.110	3.142
3.014	3.111	3.158
3.021	3.113	3.170
3.016	3.117	3.196
3.021	3.118	3.213
3.019	3.115	3.247
3.024	3.112	3.264
3.018	3.113	3.279
3.021	3.113	3.285
3.021	3.112	3.281
3.021	3.108	3.259
3.021	3.118	3.217
3.019	3.113	3.196
3.016	3.115	3.174
3.014	3.113	3.159
3.015	3.109	3.143
3.014	3.115	3.154
3.017	3.118	3.176
3.021	3.114	3.212
3.021	3.115	3.223
3.024	3.108	3.223
3.024	3.113	3.223
3.026	3.115	3.223
3.024	3.112	3.220
3.022	3.111	3.211
3.027	3.108	3.207
3.030	3.111	3.196
3.029	3.112	3.199
3.019	3.109	3.184
3.019	3.105	3.162
3.019	3.110	3.169
3.029	3.106	3.184
3.029	3.112	3.204
3.039	3.110	3.221
3.035	3.116	3.242
3.040	3.114	3.261
3.038	3.109	3.255
3.038	3.118	3.247
3.036	3.111	3.231
3.026	3.115	3.216
3.026	3.113	3.238
3.026	3.113	3.245
3.027	3.105	3.249
3.021	3.111	3.255
3.008	3.120	3.254
3.014	3.121	3.254
3.009	3.120	3.257
3.018	3.120	3.281
3.011	3.117	3.308
3.008	3.112	3.304
3.009	3.120	3.281
3.007	3.115	3.274
3.002	3.118	3.278
2.997	3.115	3.294
3.002	3.123	3.304
3.004	3.116	3.311
3.009	3.120	3.308
3.011	3.121	3.304
3.012	3.114	3.291
3.016	3.116	3.283
3.029	3.125	3.297
3.028	3.123	3.297
3.038	3.123	3.302
3.031	3.120	3.330
3.031	3.120	3.332
3.036	3.118	3.334
3.028	3.120	3.357
3.028	3.120	3.360
3.034	3.120	3.357
3.026	3.120	3.360
3.026	3.120	3.350
3.018	3.116	3.351
3.024	3.121	3.347
3.028	3.120	3.347
3.036	3.123	3.336
3.036	3.120	3.314
3.036	3.120	3.279
3.036	3.118	3.265
3.036	3.116	3.276
3.039	3.115	3.287
3.038	3.113	3.304
3.043	3.116	3.294
3.046	3.117	3.289
3.037	3.118	3.287
3.036	3.113	3.299
3.029	3.115	3.311
3.031	3.120	3.318
3.031	3.120	3.335
3.025	3.119	3.361
3.027	3.120	3.378
3.031	3.125	3.402
3.031	3.125	3.391
3.022	3.123	3.382
3.019	3.118	3.362
3.019	3.123	3.325
3.019	3.121	3.300
3.019	3.122	3.307
3.024	3.116	3.311
3.019	3.118	3.320
3.014	3.125	3.332
3.014	3.123	3.320
3.010	3.126	3.318
3.017	3.118	3.316
3.027	3.122	3.323
3.029	3.125	3.328
3.027	3.125	3.328
3.034	3.123	3.330
3.027	3.125	3.329
3.029	3.127	3.353
3.031	3.121	3.370
3.032	3.125	3.360
3.038	3.118	3.346
3.034	3.124	3.344
3.026	3.126	3.320
3.021	3.122	3.315
3.024	3.125	3.323
3.022	3.123	3.320
3.029	3.126	3.300
3.034	3.126	3.289
3.034	3.126	3.281
3.036	3.125	3.269
3.029	3.122	3.269
3.036	3.125	3.269
3.033	3.121	3.274
3.026	3.121	3.288
3.029	3.124	3.279
3.026	3.125	3.272
3.019	3.123	3.255
3.020	3.120	3.260
3.017	3.118	3.253
3.017	3.128	3.245
3.016	3.126	3.243
3.022	3.123	3.262
3.022	3.126	3.274
3.020	3.128	3.277
3.018	3.125	3.292
3.024	3.128	3.306
3.024	3.127	3.316
3.031	3.128	3.333
3.034	3.125	3.347
3.036	3.120	3.339
3.036	3.125	3.326
3.028	3.123	3.308
3.025	3.121	3.283
3.019	3.119	3.255
3.019	3.123	3.240
3.015	3.121	3.219
3.019	3.121	3.210
3.024	3.118	3.241
3.021	3.126	3.261
3.019	3.125	3.260
3.016	3.123	3.252
3.020	3.123	3.230
3.017	3.115	3.225
3.019	3.121	3.216
3.019	3.123	3.246
3.009	3.124	3.244
3.002	3.119	3.238
2.995	3.119	3.219
3.002	3.126	3.213
3.002	3.125	3.209
3.011	3.125	3.197
3.006	3.125	3.189
3.009	3.123	3.216
3.009	3.118	3.247
3.014	3.118	3.281
3.012	3.121	3.262
3.019	3.115	3.236
3.009	3.116	3.238
3.006	3.125	3.252
3.010	3.118	3.265
3.006	3.123	3.255
3.007	3.120	3.240
3.005	3.123	3.230
3.009	3.125	3.215
3.009	3.120	3.201
3.012	3.118	3.199
3.007	3.123	3.194
2.994	3.121	3.192
2.991	3.123	3.195
2.990	3.124	3.210
2.989	3.119	3.218
2.982	3.116	3.231
2.980	3.119	3.230
2.982	3.116	3.236
2.982	3.115	3.245
2.985	3.117	3.247
2.983	3.118	3.233
2.983	3.120	3.220
2.985	3.116	3.226
2.997	3.118	3.223
2.992	3.121	3.217
2.982	3.117	3.220
2.985	3.111	3.208
2.985	3.110	3.199
2.982	3.111	3.194
2.989	3.115	3.186
3.000	3.121	3.186
2.991	3.113	3.169
2.994	3.115	3.149
2.992	3.115	3.159
2.992	3.117	3.161
2.984	3.115	3.172
2.987	3.118	3.194
2.980	3.111	3.204
2.986	3.124	3.196
2.991	3.118	3.195
2.981	3.122	3.187
2.987	3.123	3.181
2.999	3.117	3.171
2.997	3.121	3.158
2.997	3.121	3.138
2.985	3.120	3.127
2.989	3.120	3.143
2.985	3.118	3.142
2.991	3.118	3.142
2.992	3.116	3.127
2.985	3.127	3.108
2.990	3.122	3.094
2.994	3.118	3.096
3.000	3.126	3.118
3.004	3.122	3.142
2.999	3.116	3.153
2.992	3.115	3.150
2.997	3.119	3.142
2.999	3.122	3.145
2.995	3.127	3.150
2.994	3.126	3.162
2.997	3.125	3.150
2.992	3.121	3.162
2.987	3.118	3.170
2.982	3.123	3.177
2.981	3.115	3.176
2.984	3.118	3.171
2.991	3.113	3.159
2.989	3.118	3.143
2.984	3.120	3.140
2.982	3.120	3.165
2.992	3.121	3.177
2.984	3.121	3.191
2.987	3.121	3.193
2.991	3.114	3.189
2.981	3.121	3.178
2.976	3.115	3.169
2.977	3.115	3.171
2.982	3.118	3.179
2.982	3.118	3.188
2.987	3.121	3.218
2.992	3.115	3.220
2.997	3.115	3.210
2.994	3.112	3.201
2.993	3.113	3.167
2.980	3.118	3.145
2.982	3.115	3.125
2.980	3.111	3.123
2.969	3.115	3.122
2.975	3.115	3.127
2.979	3.120	3.140
2.972	3.115	3.196
2.968	3.112	3.239
2.969	3.115	3.259
2.970	3.120	3.259
2.972	3.120	3.260
2.970	3.113	3.254
2.972	3.113	3.231
2.982	3.118	3.199
2.980	3.116	3.183
2.982	3.118	3.176
2.981	3.111	3.181
2.978	3.110	3.190
2.970	3.113	3.205
2.975	3.113	3.221
2.982	3.112	3.207
2.982	3.117	3.194
2.980	3.110	3.189
2.982	3.113	3.226
2.984	3.116	3.244
2.987	3.114	3.259
2.990	3.116	3.262
2.980	3.118	3.265
2.984	3.118	3.264
2.982	3.122	3.275
2.982	3.118	3.282
2.982	3.108	3.282
2.982	3.112	3.272
2.984	3.116	3.267
2.983	3.111	3.257
2.978	3.118	3.247
2.976	3.115	3.259
2.974	3.118	3.265
2.977	3.122	3.267
2.982	3.122	3.279
2.975	3.116	3.326
2.977	3.121	3.350
2.977	3.118	3.352
2.978	3.116	3.315
2.981	3.121	3.301
2.983	3.123	3.296
2.982	3.116	3.301
2.992	3.123	3.310
2.994	3.121	3.324
2.990	3.118	3.323
2.997	3.121	3.320
2.992	3.119	3.306
3.002	3.108	3.293
3.008	3.121	3.265
2.999	3.121	3.269
3.002	3.125	3.281
2.997	3.123	3.299
3.000	3.121	3.318
2.999	3.120	3.315
2.995	3.122	3.318
2.989	3.120	3.289
2.995	3.118	3.265
2.991	3.120	3.250
2.985	3.126	3.245
2.991	3.123	3.247
3.000	3.123	3.259
3.002	3.123	3.274
3.002	3.123	3.290
3.007	3.126	3.306
3.009	3.123	3.316
3.009	3.123	3.323
3.003	3.120	3.336
2.997	3.123	3.335
2.994	3.125	3.333
2.992	3.123	3.345
2.997	3.126	3.360
3.004	3.122	3.371
3.002	3.125	3.363
3.002	3.126	3.350
2.996	3.125	3.338
2.995	3.121	3.328
2.993	3.123	3.279
3.002	3.123	3.282
3.002	3.123	3.316
3.007	3.127	3.364
3.010	3.125	3.385
3.007	3.128	3.381
3.012	3.121	3.382
3.004	3.123	3.364
3.006	3.125	3.357
2.998	3.123	3.355
2.997	3.125	3.353
3.007	3.123	3.343
3.002	3.123	3.330
3.005	3.123	3.331
3.006	3.125	3.330
3.017	3.125	3.328
3.022	3.121	3.313
3.020	3.125	3.319
3.014	3.130	3.316
3.012	3.122	3.318
3.021	3.125	3.358
3.019	3.125	3.377
3.017	3.128	3.376
3.016	3.126	3.364
3.021	3.124	3.329
3.014	3.125	3.315
3.017	3.122	3.306
3.008	3.125	3.288
3.016	3.128	3.277
3.021	3.126	3.284
3.018	3.126	3.288
3.011	3.126	3.299
3.012	3.125	3.291
3.009	3.125	3.282
3.009	3.120	3.291
3.011	3.121	3.304
3.003	3.126	3.310
3.006	3.125	3.320
2.992	3.130	3.330
2.999	3.128	3.338
3.002	3.133	3.330
3.009	3.130	3.345
3.016	3.127	3.368
3.024	3.129	3.364
3.020	3.132	3.365
3.018	3.135	3.355
3.014	3.128	3.330
3.014	3.128	3.316
3.019	3.135	3.308
3.014	3.133	3.298
3.014	3.125	3.282
3.011	3.125	3.297
3.009	3.125	3.301
3.010	3.128	3.301
3.005	3.131	3.281
3.015	3.134	3.267
3.014	3.124	3.272
3.014	3.130	3.291
3.019	3.130	3.316
3.014	3.129	3.331
3.017	3.128	3.341
3.024	3.125	3.332
3.023	3.125	3.325
3.019	3.130	3.330
3.036	3.127	3.321
3.036	3.131	3.311
3.036	3.133	3.299
3.036	3.137	3.299
3.031	3.134	3.319
3.027	3.132	3.318
3.027	3.130	3.328
3.033	3.132	3.334
3.030	3.130	3.353
3.033	3.132	3.365
3.034	3.125	3.373
3.023	3.130	3.369
3.029	3.125	3.356
3.024	3.138	3.352
3.034	3.126	3.354
3.023	3.124	3.362
3.031	3.125	3.355
3.023	3.125	3.347
3.024	3.128	3.356
3.019	3.128	3.363
3.026	3.125	3.357
3.025	3.131	3.348
3.024	3.129	3.348
3.019	3.127	3.355
3.019	3.125	3.359
3.013	3.130	3.333
3.017	3.127	3.314
3.019	3.128	3.308
3.027	3.135	3.299
3.026	3.131	3.282
3.026	3.130	3.274
3.024	3.128	3.257
3.016	3.128	3.260
3.017	3.125	3.264
3.010	3.128	3.272
3.008	3.130	3.286
3.014	3.128	3.287
3.019	3.125	3.289
3.016	3.129	3.302
3.022	3.127	3.311
3.019	3.127	3.328
3.009	3.122	3.336
3.004	3.128	3.325
3.000	3.126	3.316
2.998	3.128	3.306
2.994	3.125	3.294
2.992	3.129	3.289
2.989	3.128	3.289
2.987	3.127	3.291
2.987	3.126	3.269
2.995	3.136	3.257
2.996	3.133	3.252
3.001	3.133	3.245
2.996	3.126	3.231
2.999	3.130	3.242
3.007	3.133	3.278
3.009	3.128	3.282
3.000	3.125	3.277
2.997	3.121	3.275
3.002	3.122	3.282
3.009	3.131	3.272
3.005	3.128	3.282
3.003	3.125	3.283
3.009	3.126	3.280
3.005	3.124	3.294
3.007	3.127	3.297
3.002	3.125	3.291
2.999	3.123	3.288
2.994	3.126	3.277
2.994	3.128	3.231
2.988	3.125	3.204
2.985	3.126	3.186
2.994	3.125	3.193
2.992	3.130	3.208
2.989	3.128	3.215
2.995	3.127	3.230
2.996	3.125	3.228
2.995	3.123	3.223
2.992	3.126	3.215
3.000	3.128	3.218
3.003	3.126	3.236
3.007	3.126	3.255
3.007	3.123	3.270
3.009	3.130	3.272
3.002	3.121	3.268
2.997	3.131	3.260
2.992	3.125	3.275
2.987	3.123	3.275
2.991	3.120	3.282
2.990	3.126	3.284
2.986	3.122	3.265
2.992	3.115	3.244
2.987	3.118	3.243
2.997	3.123	3.255
2.997	3.117	3.265
2.995	3.123	3.269
2.985	3.125	3.253
2.983	3.132	3.242
2.981	3.128	3.248
2.989	3.127	3.267
2.982	3.124	3.257
2.981	3.121	3.238
2.982	3.132	3.230
2.979	3.128	3.227
2.975	3.130	3.239
2.980	3.128	3.252
2.979	3.128	3.267
2.976	3.125	3.281
2.977	3.124	3.269
2.972	3.130	3.274
2.972	3.125	3.282
2.968	3.126	3.273
2.958	3.128	3.257
2.963	3.128	3.245
2.963	3.124	3.247
2.966	3.130	3.248
2.962	3.132	3.236
2.960	3.125	3.210
2.963	3.124	3.186
2.965	3.127	3.171
2.968	3.127	3.181
2.970	3.125	3.201
2.965	3.126	3.204
2.964	3.126	3.199
2.970	3.131	3.203
2.966	3.131	3.212
2.970	3.133	3.211
2.970	3.130	3.238
2.972	3.135	3.252
2.980	3.123	3.247
2.979	3.125	3.243
2.977	3.125	3.232
2.974	3.125	3.234
2.979	3.128	3.220
2.973	3.125	3.194
2.972	3.125	3.178
2.972	3.129	3.176
2.970	3.128	3.175
2.975	3.120	3.174
2.979	3.121	3.173
2.982	3.133	3.176
2.977	3.125	3.233
2.983	3.126	3.254
2.982	3.126	3.255
2.977	3.124	3.256
2.972	3.123	3.259
2.975	3.122	3.252
2.970	3.130	3.252
2.968	3.130	3.259
2.982	3.132	3.253
2.982	3.129	3.238
2.983	3.125	3.214
2.978	3.126	3.216
2.983	3.125	3.218
2.977	3.131	3.217
2.975	3.125	3.216
2.972	3.126	3.220
2.975	3.125	3.229
2.970	3.133	3.246
2.980	3.128	3.252
2.991	3.126	3.261
2.984	3.124	3.261
2.992	3.131	3.262
2.990	3.126	3.265
2.987	3.125	3.265
2.982	3.123	3.245
2.980	3.125	3.242
2.982	3.126	3.249
2.983	3.122	3.231
2.983	3.125	3.211
2.983	3.125	3.203
2.987	3.125	3.199
2.986	3.135	3.199
2.994	3.132	3.207
3.005	3.133	3.237
3.009	3.127	3.259
3.022	3.130	3.253
3.017	3.130	3.248
3.012	3.125	3.255
3.011	3.128	3.248
2.999	3.125	3.235
2.999	3.127	3.230
3.002	3.130	3.228
2.994	3.132	3.216
2.987	3.126	3.211
2.987	3.121	3.225
2.987	3.127	3.231
2.991	3.125	3.248
2.999	3.125	3.265
2.990	3.126	3.264
2.994	3.124	3.260
3.000	3.125	3.272
3.010	3.125	3.283
3.009	3.128	3.252
3.024	3.125	3.230
3.020	3.123	3.204
3.023	3.125	3.206
3.020	3.136	3.203
3.009	3.129	3.199
3.010	3.125	3.197
3.000	3.125	3.196
2.990	3.128	3.189
2.987	3.133	3.176
2.991	3.131	3.145
2.995	3.125	3.126
3.002	3.125	3.120
3.000	3.125	3.128
3.002	3.130	3.131
2.997	3.125	3.117
2.994	3.125	3.098
3.004	3.127	3.093
3.004	3.129	3.100
2.995	3.125	3.103
2.993	3.125	3.088
2.993	3.128	3.088
2.991	3.133	3.090
2.989	3.125	3.122
2.987	3.125	3.154
2.992	3.125	3.176
2.997	3.127	3.175
2.994	3.125	3.179
2.994	3.129	3.196
3.006	3.121	3.210
3.005	3.126	3.208
3.006	3.122	3.199
3.004	3.125	3.206
2.994	3.125	3.229
2.992	3.132	3.238
2.992	3.126	3.219
2.987	3.126	3.204
2.989	3.125	3.184
2.990	3.123	3.171
2.995	3.124	3.164
2.992	3.125	3.147
2.991	3.126	3.154
2.983	3.126	3.156
2.985	3.122	3.160
2.972	3.126	3.157
2.969	3.123	3.155
2.974	3.126	3.145
2.975	3.126	3.132
2.971	3.125	3.132
2.974	3.131	3.130
2.972	3.125	3.141
2.970	3.125	3.167
2.971	3.124	3.206
2.975	3.121	3.225
2.967	3.127	3.245
2.975	3.127	3.261
2.975	3.127	3.267
2.981	3.132	3.262
2.981	3.133	3.239
2.977	3.133	3.208
2.970	3.132	3.197
2.960	3.129	3.186
2.963	3.130	3.206
2.967	3.127	3.230
2.970	3.133	3.225
2.968	3.131	3.226
2.963	3.127	3.238
2.968	3.118	3.258
2.967	3.134	3.284
2.960	3.130	3.298
2.965	3.126	3.304
2.962	3.126	3.296
2.960	3.125	3.287
2.956	3.125	3.289
2.956	3.126	3.299
2.959	3.126	3.301
2.956	3.125	3.307
2.947	3.125	3.314
2.955	3.127	3.318
2.953	3.129	3.319
2.960	3.128	3.316
2.955	3.126	3.300
2.952	3.125	3.289
2.956	3.128	3.269
2.954	3.125	3.245
2.954	3.130	3.228
2.955	3.130	3.210
2.955	3.125	3.199
2.955	3.123	3.162
2.958	3.126	3.151
2.954	3.127	3.141
2.948	3.126	3.145
2.953	3.131	3.152
2.950	3.125	3.147
2.954	3.128	3.154
2.953	3.125	3.167
2.955	3.125	3.173
2.955	3.126	3.194
2.966	3.126	3.214
2.971	3.127	3.249
2.972	3.125	3.281
2.973	3.130	3.294
2.973	3.128	3.281
2.975	3.126	3.261
2.972	3.125	3.238
2.960	3.132	3.220
2.967	3.125	3.229
2.975	3.126	3.223
2.974	3.131	3.218
2.980	3.128	3.218
2.987	3.129	3.208
2.986	3.135	3.194
2.985	3.126	3.179
2.987	3.133	3.172
2.982	3.128	3.167
2.985	3.136	3.178
2.989	3.135	3.211
2.991	3.138	3.244
2.990	3.130	3.286
2.990	3.130	3.313
2.992	3.133	3.323
2.979	3.132	3.323
2.980	3.130	3.292
2.977	3.125	3.273
2.980	3.131	3.249
2.972	3.128	3.253
2.972	3.133	3.269
2.972	3.131	3.281
2.975	3.125	3.291
2.976	3.135	3.304
2.982	3.135	3.315
2.980	3.135	3.325
2.985	3.134	3.347
2.984	3.137	3.333
2.987	3.132	3.315
2.981	3.135	3.299
2.987	3.128	3.299
2.982	3.133	3.313
2.983	3.128	3.323
2.983	3.140	3.316
2.980	3.134	3.295
2.975	3.140	3.289
2.972	3.128	3.277
2.965	3.133	3.281
2.962	3.131	3.293
2.970	3.132	3.301
2.977	3.126	3.284
2.977	3.128	3.265
2.979	3.125	3.248
2.984	3.125	3.245
2.982	3.136	3.260
2.977	3.126	3.268
2.977	3.128	3.279
2.977	3.127	3.308
2.975	3.130	3.311
2.970	3.130	3.298
2.979	3.130	3.283
2.979	3.126	3.269
2.970	3.131	3.260
2.965	3.125	3.255
2.967	3.128	3.252
2.975	3.125	3.260
2.976	3.132	3.265
2.979	3.129	3.270
2.977	3.126	3.264
2.976	3.126	3.264
2.978	3.128	3.260
2.975	3.127	3.269
2.975	3.125	3.279
2.977	3.127	3.265
2.977	3.126	3.235
2.974	3.126	3.245
2.979	3.125	3.260
2.982	3.125	3.264
2.978	3.126	3.276
2.982	3.125	3.292
2.982	3.125	3.308
2.979	3.125	3.316
2.979	3.125	3.313
2.979	3.125	3.306
2.979	3.128	3.316
2.977	3.125	3.315
2.972	3.125	3.286
2.979	3.131	3.248
2.979	3.130	3.210
2.975	3.131	3.201
2.975	3.128	3.203
2.980	3.127	3.196
2.982	3.128	3.196
2.981	3.125	3.203
2.987	3.128	3.217
2.992	3.126	3.235
2.997	3.128	3.260
2.995	3.128	3.294
3.002	3.127	3.316
2.992	3.119	3.335
3.002	3.125	3.336
2.997	3.123	3.309
2.991	3.123	3.282
2.982	3.125	3.258
2.985	3.129	3.238
2.982	3.126	3.245
2.987	3.128	3.262
2.994	3.125	3.257
2.999	3.125	3.270
2.995	3.128	3.298
2.991	3.128	3.320
2.997	3.125	3.298
3.006	3.125	3.289
3.009	3.130	3.293
3.008	3.128	3.282
3.006	3.126	3.269
2.992	3.124	3.258
2.982	3.122	3.239
2.977	3.127	3.207
2.984	3.132	3.176
2.981	3.136	3.148
2.987	3.130	3.123
2.992	3.130	3.108
2.995	3.130	3.129
2.993	3.131	3.140
2.991	3.132	3.156
3.000	3.128	3.169
3.002	3.128	3.191
3.006	3.134	3.223
3.000	3.122	3.258
2.997	3.128	3.251
3.000	3.128	3.260
2.995	3.126	3.279
2.992	3.123	3.281
2.989	3.127	3.279
2.982	3.126	3.249
2.982	3.130	3.231
2.982	3.125	3.231
2.989	3.126	3.228
2.982	3.125	3.213
2.982	3.128	3.224
2.981	3.123	3.242
2.974	3.126	3.276
2.980	3.131	3.289
2.970	3.126	3.291
2.973	3.126	3.265
2.970	3.125	3.245
2.974	3.124	3.229
2.973	3.127	3.210
2.969	3.128	3.199
2.968	3.135	3.195
2.965	3.126	3.198
2.972	3.129	3.230
2.982	3.131	3.248
2.985	3.135	3.264
2.985	3.130	3.274
2.991	3.137	3.289
2.992	3.130	3.297
2.994	3.130	3.298
2.990	3.135	3.296
2.982	3.134	3.294
2.985	3.131	3.299
3.000	3.128	3.307
3.000	3.123	3.291
2.994	3.125	3.289
2.991	3.128	3.287
2.990	3.122	3.277
2.987	3.131	3.267
2.981	3.132	3.257
2.982	3.135	3.241
2.985	3.130	3.220
2.987	3.130	3.218
2.988	3.124	3.221
2.989	3.125	3.221
2.981	3.125	3.213
2.977	3.126	3.210
2.975	3.127	3.232
2.973	3.125	3.242
2.967	3.118	3.250
2.972	3.123	3.248
2.977	3.125	3.230
2.976	3.127	3.214
2.979	3.130	3.195
2.981	3.135	3.185
2.985	3.130	3.196
2.985	3.132	3.208
2.987	3.130	3.230
2.987	3.136	3.257
2.990	3.127	3.249
2.991	3.126	3.235
2.990	3.124	3.216
2.997	3.127	3.203
3.002	3.125	3.191
3.000	3.126	3.162
2.996	3.125	3.172
2.990	3.125	3.166
2.984	3.125	3.154
2.982	3.125	3.135
2.980	3.130	3.135
2.975	3.128	3.140
2.982	3.126	3.158
2.989	3.125	3.167
2.999	3.123	3.170
3.001	3.126	3.174
3.002	3.126	3.162
2.994	3.126	3.155
2.995	3.122	3.152
2.992	3.125	3.152
3.000	3.128	3.155
2.997	3.125	3.157
2.994	3.132	3.162
3.002	3.131	3.164
2.999	3.129	3.189
3.000	3.139	3.201
3.002	3.134	3.196
2.999	3.127	3.193
2.994	3.131	3.180
2.993	3.128	3.197
2.994	3.131	3.213
2.994	3.130	3.227
2.999	3.131	3.216
2.999	3.132	3.206
2.986	3.128	3.200
2.979	3.130	3.219
2.981	3.133	3.216
2.972	3.132	3.209
2.978	3.126	3.188
2.982	3.135	3.172
2.977	3.129	3.166
2.982	3.128	3.175
2.992	3.126	3.179
2.995	3.128	3.206
2.994	3.130	3.225
2.999	3.130	3.223
3.009	3.132	3.217
3.002	3.135	3.223
2.992	3.127	3.228
2.986	3.129	3.222
2.989	3.133	3.210
2.982	3.133	3.206
2.968	3.125	3.182
2.968	3.128	3.150
2.966	3.131	3.140
2.972	3.128	3.142
2.980	3.133	3.155
2.980	3.125	3.171
2.980	3.130	3.174
2.982	3.130	3.191
2.982	3.134	3.231
2.985	3.124	3.236
2.972	3.128	3.230
2.977	3.125	3.218
2.975	3.128	3.222
2.973	3.126	3.205
2.969	3.131	3.197
2.976	3.125	3.213
2.967	3.125	3.230
2.970	3.130	3.239
2.968	3.132	3.253
2.972	3.131	3.245
2.973	3.131	3.219
2.975	3.131	3.201
2.983	3.133	3.200
2.977	3.128	3.200
2.971	3.125	3.211
2.972	3.125	3.231
2.965	3.126	3.238
2.960	3.131	3.240
2.963	3.125	3.230
2.966	3.127	3.196
2.968	3.128	3.158
2.966	3.125	3.139
2.967	3.126	3.127
2.972	3.126	3.130
2.975	3.126	3.118
2.975	3.121	3.091
2.973	3.125	3.086
2.969	3.126	3.093
2.973	3.126	3.091
2.972	3.125	3.086
2.972	3.126	3.093
2.969	3.125	3.100
2.967	3.121	3.106
2.957	3.122	3.108
2.953	3.125	3.108
2.943	3.122	3.108
2.940	3.120	3.124
2.943	3.112	3.140
2.940	3.118	3.137
2.941	3.125	3.131
2.938	3.119	3.120
2.942	3.120	3.105
2.956	3.123	3.107
2.955	3.121	3.122
2.953	3.121	3.115
2.956	3.125	3.121
2.950	3.116	3.142
2.948	3.118	3.128
2.948	3.122	3.107
2.957	3.116	3.105
2.958	3.118	3.088
2.958	3.121	3.066
2.953	3.126	3.059
2.956	3.125	3.080
2.955	3.121	3.077
2.952	3.120	3.066
2.953	3.128	3.057
2.956	3.123	3.056
2.962	3.121	3.082
2.967	3.119	3.108
2.972	3.119	3.150
2.977	3.119	3.152
2.970	3.120	3.151
2.969	3.121	3.130
2.965	3.118	3.112
2.967	3.125	3.102
2.968	3.123	3.106
2.955	3.125	3.100
2.952	3.118	3.101
2.960	3.121	3.110
2.960	3.123	3.098
2.963	3.125	3.093
2.960	3.119	3.093
2.958	3.125	3.106
2.962	3.121	3.126
2.963	3.118	3.135
2.960	3.112	3.140
2.967	3.116	3.161
2.965	3.118	3.164
2.970	3.125	3.146
2.971	3.123	3.118
2.969	3.123	3.090
2.967	3.121	3.075
2.967	3.121	3.062
2.963	3.118	3.064
2.960	3.116	3.076
2.967	3.118	3.091
2.958	3.121	3.105
2.953	3.120	3.115
2.946	3.118	3.122
2.945	3.121	3.127
2.953	3.120	3.122
2.948	3.120	3.108
2.946	3.116	3.102
2.950	3.123	3.088
2.945	3.119	3.082
2.947	3.114	3.063
2.953	3.110	3.071
2.943	3.114	3.083
2.948	3.115	3.078
2.953	3.116	3.098
2.950	3.116	3.118
2.956	3.113	3.125
2.955	3.118	3.143
2.948	3.114	3.155
2.953	3.113	3.157
2.955	3.113	3.154
2.956	3.116	3.171
2.958	3.115	3.179
2.955	3.122	3.161
2.958	3.121	3.154
2.958	3.121	3.142
2.955	3.118	3.131
2.947	3.122	3.135
2.948	3.118	3.148
2.945	3.118	3.160
2.944	3.118	3.169
2.950	3.121	3.166
2.946	3.121	3.169
2.950	3.120	3.172
2.948	3.121	3.142
2.957	3.117	3.083
2.959	3.117	3.073
2.953	3.117	3.066
2.956	3.118	3.088
2.960	3.111	3.093
2.957	3.110	3.092
2.960	3.110	3.095
2.960	3.106	3.101
2.955	3.115	3.108
2.957	3.118	3.124
2.957	3.123	3.141
2.955	3.110	3.153
2.955	3.121	3.160
2.954	3.113	3.167
2.951	3.118	3.184
2.945	3.111	3.196
2.950	3.111	3.212
2.945	3.108	3.207
2.955	3.111	3.216
2.944	3.108	3.215
2.955	3.107	3.226
2.947	3.115	3.242
2.944	3.112	3.247
2.946	3.119	3.248
2.948	3.116	3.235
2.953	3.116	3.230
2.960	3.113	3.209
2.967	3.110	3.187
2.964	3.111	3.188
2.958	3.115	3.191
2.963	3.119	3.179
2.955	3.115	3.176
2.965	3.117	3.157
2.962	3.118	3.150
2.963	3.118	3.126
2.960	3.114	3.141
2.958	3.114	3.144
2.962	3.112	3.151
2.965	3.109	3.147
2.964	3.106	3.136
2.964	3.111	3.154
2.958	3.111	3.183
2.957	3.110	3.225
2.967	3.113	3.251
2.965	3.113	3.265
2.965	3.118	3.243
2.967	3.113	3.223
2.975	3.113	3.218
2.972	3.110	3.225
2.976	3.117	3.252
2.976	3.116	3.258
2.982	3.116	3.259
2.978	3.115	3.252
2.980	3.113	3.250
2.977	3.112	3.247
2.979	3.106	3.256
2.980	3.113	3.269
2.977	3.110	3.270
2.970	3.109	3.254
2.974	3.108	3.243
2.974	3.111	3.228
2.970	3.114	3.219
2.967	3.104	3.228
2.964	3.108	3.222
2.964	3.113	3.231
2.968	3.109	3.213
2.970	3.108	3.213
2.976	3.113	3.229
2.977	3.108	3.242
2.977	3.111	3.223
2.975	3.111	3.199
2.980	3.108	3.189
2.980	3.108	3.191
2.977	3.107	3.209
2.975	3.110	3.204
2.980	3.115	3.226
2.981	3.105	3.223
2.981	3.110	3.213
2.970	3.107	3.206
2.972	3.118	3.218
2.968	3.113	3.228
2.972	3.113	3.223
2.965	3.111	3.196
2.958	3.113	3.193
2.958	3.108	3.198
2.963	3.116	3.240
2.973	3.118	3.265
2.979	3.115	3.275
2.977	3.112	3.272
2.967	3.110	3.232
2.975	3.113	3.204
2.980	3.111	3.193
2.982	3.108	3.185
2.987	3.105	3.194
2.998	3.118	3.205
2.999	3.108	3.210
2.992	3.111	3.229
2.987	3.119	3.247
2.985	3.117	3.242
2.977	3.108	3.220
2.980	3.111	3.218
2.974	3.108	3.210
2.983	3.114	3.215
2.978	3.110	3.230
2.973	3.116	3.220
2.967	3.107	3.209
2.963	3.108	3.191
2.961	3.110	3.193
2.965	3.109	3.195
2.960	3.108	3.208
2.965	3.107	3.218
2.971	3.116	3.223
2.966	3.113	3.222
2.974	3.105	3.213
2.982	3.106	3.208
2.987	3.106	3.205
2.984	3.108	3.189
2.989	3.105	3.197
2.985	3.110	3.193
2.982	3.111	3.181
2.980	3.108	3.174
2.986	3.109	3.174
2.975	3.105	3.181
2.977	3.108	3.201
2.968	3.113	3.236
2.968	3.115	3.265
2.975	3.108	3.284
2.970	3.113	3.303
2.967	3.107	3.321
2.973	3.113	3.337
2.983	3.115	3.323
2.980	3.115	3.289
2.975	3.110	3.240
2.980	3.110	3.192
2.977	3.108	3.170
2.980	3.107	3.160
2.972	3.109	3.147
2.972	3.108	3.154
2.972	3.111	3.165
2.983	3.115	3.171
2.978	3.115	3.191
2.982	3.110	3.206
2.990	3.113	3.205
2.989	3.113	3.229
2.985	3.108	3.250
2.982	3.106	3.247
2.982	3.111	3.255
2.982	3.108	3.231
2.988	3.115	3.223
2.983	3.115	3.215
2.977	3.111	3.206
2.977	3.113	3.200
2.979	3.120	3.198
2.974	3.115	3.181
2.972	3.110	3.150
2.982	3.115	3.132
2.970	3.110	3.130
2.978	3.109	3.126
2.974	3.115	3.120
2.967	3.111	3.120
2.975	3.111	3.124
2.974	3.108	3.135
2.965	3.106	3.134
2.967	3.114	3.140
2.967	3.110	3.169
2.967	3.108	3.170
2.970	3.110	3.143
2.971	3.115	3.150
2.972	3.110	3.169
2.965	3.106	3.190
2.967	3.106	3.205
2.960	3.114	3.223
2.955	3.110	3.207
2.958	3.108	3.204
2.960	3.108	3.214
2.962	3.114	3.203
2.970	3.105	3.203
2.965	3.115	3.218
2.965	3.107	3.220
2.965	3.108	3.202
2.970	3.108	3.178
2.967	3.106	3.184
2.972	3.109	3.177
2.972	3.109	3.164
2.971	3.106	3.159
2.968	3.116	3.171
2.967	3.115	3.194
2.975	3.106	3.203
2.977	3.102	3.199
2.970	3.111	3.199
2.967	3.108	3.201
2.972	3.106	3.191
2.972	3.108	3.181
2.975	3.108	3.179
2.977	3.107	3.174
2.979	3.104	3.176
2.990	3.108	3.176
2.987	3.110	3.176
2.977	3.108	3.190
2.985	3.113	3.196
2.982	3.108	3.186
2.984	3.108	3.175
2.991	3.108	3.176
2.982	3.111	3.173
2.990	3.113	3.177
3.002	3.106	3.177
3.002	3.108	3.169
3.000	3.111	3.159
3.000	3.110	3.153
2.987	3.115	3.142
2.989	3.113	3.142
2.988	3.111	3.150
2.984	3.111	3.179
2.987	3.115	3.190
2.983	3.110	3.181
2.986	3.118	3.169
2.977	3.116	3.157
2.977	3.111	3.147
2.977	3.111	3.137
2.986	3.114	3.150
2.992	3.113	3.161
2.996	3.110	3.169
2.999	3.112	3.181
2.999	3.111	3.194
3.000	3.115	3.203
3.000	3.120	3.187
2.994	3.113	3.179
2.994	3.107	3.177
2.995	3.112	3.176
2.990	3.112	3.172
2.983	3.116	3.173
2.987	3.117	3.184
2.985	3.120	3.194
2.985	3.113	3.204
2.983	3.120	3.222
2.987	3.113	3.230
2.992	3.116	3.213
2.997	3.112	3.196
2.997	3.114	3.172
2.997	3.114	3.152
2.997	3.118	3.157
2.987	3.116	3.164
2.991	3.106	3.160
2.990	3.117	3.149
2.989	3.115	3.159
2.992	3.112	3.176
2.981	3.120	3.198
2.983	3.115	3.213
2.985	3.121	3.216
2.992	3.118	3.222
2.995	3.118	3.229
2.989	3.118	3.250
2.982	3.111	3.265
2.989	3.113	3.248
2.992	3.119	3.224
2.991	3.117	3.181
2.995	3.119	3.150
2.992	3.112	3.147
3.004	3.120	3.164
3.000	3.117	3.196
2.999	3.118	3.242
3.010	3.118	3.257
3.009	3.117	3.266
3.012	3.118	3.282
3.009	3.120	3.277
3.017	3.117	3.252
3.021	3.121	3.220
3.026	3.116	3.230
3.022	3.119	3.234
3.019	3.114	3.238
3.014	3.122	3.233
3.010	3.115	3.248
2.994	3.111	3.274
3.006	3.118	3.289
2.998	3.123	3.306
2.994	3.120	3.311
2.992	3.123	3.328
2.998	3.122	3.337
2.994	3.116	3.335
2.995	3.116	3.329
2.999	3.119	3.311
3.002	3.122	3.289
3.001	3.121	3.279
2.988	3.120	3.243
2.989	3.118	3.240
2.982	3.119	3.252
2.995	3.118	3.279
2.996	3.117	3.299
2.995	3.115	3.292
2.999	3.114	3.293
3.007	3.121	3.299
3.004	3.116	3.306
3.003	3.115	3.309
3.004	3.111	3.304
3.002	3.110	3.264
2.997	3.112	3.246
2.992	3.110	3.226
2.995	3.110	3.214
3.002	3.117	3.223
3.009	3.117	3.238
3.008	3.121	3.236
3.008	3.126	3.230
3.007	3.115	3.237
2.999	3.123	3.240
2.997	3.120	3.264
2.997	3.124	3.294
3.006	3.115	3.298
3.004	3.113	3.307
3.007	3.118	3.298
3.004	3.120	3.290
2.997	3.115	3.277
2.992	3.115	3.271
2.997	3.120	3.260
3.002	3.115	3.272
3.009	3.115	3.261
3.000	3.117	3.252
2.999	3.117	3.250
2.994	3.116	3.255
2.997	3.106	3.262
3.005	3.116	3.256
3.004	3.118	3.269
3.004	3.124	3.294
3.005	3.120	3.303
3.001	3.123	3.331
3.002	3.120	3.336
3.007	3.116	3.335
2.992	3.123	3.333
2.994	3.121	3.326
2.990	3.121	3.284
2.997	3.119	3.255
2.997	3.113	3.249
3.000	3.121	3.249
2.999	3.113	3.241
3.004	3.121	3.262
3.009	3.118	3.267
3.014	3.115	3.267
3.010	3.120	3.265
3.029	3.115	3.272
3.027	3.116	3.265
3.036	3.121	3.257
3.032	3.115	3.261
3.021	3.121	3.274
3.012	3.119	3.289
3.005	3.113	3.297
2.999	3.106	3.284
2.995	3.116	3.264
2.992	3.115	3.259
2.991	3.120	3.242
2.990	3.118	3.213
2.992	3.115	3.198
2.992	3.115	3.185
2.992	3.118	3.189
2.992	3.121	3.210
3.002	3.118	3.240
3.004	3.118	3.277
3.015	3.125	3.307
3.009	3.121	3.319
3.009	3.112	3.311
3.012	3.113	3.298
3.014	3.121	3.289
3.015	3.113	3.281
3.007	3.123	3.277
3.004	3.113	3.268
3.004	3.118	3.262
2.997	3.118	3.245
2.994	3.123	3.231
3.000	3.123	3.226
3.007	3.116	3.248
3.002	3.120	3.255
3.002	3.125	3.215
2.997	3.123	3.196
3.005	3.123	3.198
2.995	3.125	3.215
2.988	3.125	3.230
2.987	3.120	3.247
2.997	3.120	3.274
3.002	3.119	3.297
3.004	3.114	3.282
3.009	3.126	3.250
3.009	3.118	3.219
3.022	3.121	3.223
3.016	3.123	3.215
3.017	3.123	3.220
3.019	3.120	3.228
3.021	3.118	3.216
3.019	3.117	3.196
3.019	3.118	3.159
3.022	3.122	3.161
3.021	3.118	3.156
3.024	3.119	3.176
3.024	3.121	3.181
3.020	3.114	3.180
3.017	3.116	3.176
3.009	3.115	3.189
3.015	3.118	3.198
3.009	3.116	3.213
2.997	3.121	3.249
2.997	3.116	3.243
3.004	3.115	3.232
3.009	3.115	3.230
3.003	3.123	3.235
3.006	3.121	3.226
3.005	3.124	3.220
3.002	3.117	3.228
3.009	3.113	3.206
3.010	3.120	3.191
3.014	3.119	3.183
3.016	3.118	3.196
3.014	3.123	3.203
3.010	3.117	3.199
3.011	3.113	3.208
3.012	3.120	3.229
3.027	3.121	3.262
3.021	3.126	3.285
3.024	3.122	3.292
3.016	3.109	3.304
3.019	3.115	3.306
3.016	3.118	3.279
3.008	3.111	3.251
3.009	3.110	3.242
3.007	3.111	3.256
3.015	3.114	3.259
3.014	3.111	3.252
3.017	3.113	3.240
3.014	3.118	3.245
3.026	3.120	3.225
3.027	3.119	3.206
3.019	3.121	3.210
3.019	3.113	3.223
3.009	3.121	3.238
3.007	3.115	3.256
3.001	3.111	3.235
2.992	3.119	3.210
2.990	3.118	3.185
2.985	3.122	3.161
2.979	3.125	3.157
2.983	3.123	3.159
2.987	3.121	3.164
2.987	3.117	3.170
2.983	3.114	3.184
2.982	3.121	3.186
2.982	3.118	3.167
2.982	3.115	3.159
2.989	3.120	3.162
2.996	3.113	3.179
3.005	3.119	3.196
3.000	3.123	3.213
2.997	3.115	3.228
2.998	3.126	3.243
2.999	3.120	3.233
2.995	3.116	3.245
2.992	3.126	3.276
2.996	3.121	3.281
2.995	3.118	3.286
2.992	3.121	3.313
2.995	3.120	3.316
3.002	3.123	3.311
2.997	3.124	3.291
2.996	3.120	3.264
3.007	3.115	3.269
3.008	3.122	3.248
3.014	3.121	3.214
3.014	3.126	3.206
3.015	3.121	3.210
3.014	3.118	3.220
3.009	3.125	3.228
3.010	3.123	3.223
3.005	3.124	3.210
2.997	3.123	3.196
2.997	3.125	3.194
2.994	3.125	3.201
2.991	3.126	3.203
2.996	3.125	3.205
2.999	3.127	3.215
2.997	3.124	3.210
3.002	3.125	3.210
3.000	3.123	3.204
2.998	3.123	3.216
3.004	3.128	3.212
2.999	3.121	3.211
2.992	3.123	3.218
2.992	3.121	3.213
2.992	3.122	3.206
3.000	3.122	3.188
2.995	3.123	3.176
3.001	3.126	3.189
3.007	3.125	3.208
3.009	3.125	3.221
3.004	3.125	3.235
3.008	3.125	3.248
3.019	3.120	3.252
3.019	3.123	3.250
3.019	3.125	3.257
3.012	3.121	3.236
3.014	3.123	3.223
3.009	3.126	3.212
3.009	3.124	3.179
3.009	3.120	3.167
3.009	3.121	3.176
2.997	3.119	3.162
2.995	3.124	3.170
2.992	3.126	3.196
2.987	3.125	3.213
2.982	3.125	3.219
2.977	3.121	3.230
2.987	3.126	3.250
2.992	3.127	3.249
2.997	3.125	3.238
3.000	3.122	3.206
2.997	3.130	3.161
2.997	3.128	3.147
2.991	3.123	3.144
3.002	3.127	3.150
2.997	3.126	3.169
2.995	3.123	3.195
2.997	3.123	3.230
2.989	3.126	3.236
2.982	3.127	3.227
2.992	3.130	3.247
2.999	3.133	3.250
2.995	3.125	3.251
2.989	3.121	3.258
2.987	3.126	3.257
2.987	3.126	3.232
2.985	3.127	3.233
2.991	3.125	3.231
2.996	3.125	3.246
3.000	3.133	3.243
3.004	3.128	3.238
3.004	3.127	3.217
3.009	3.130	3.233
3.004	3.130	3.252
2.999	3.130	3.277
2.997	3.128	3.308
2.995	3.131	3.313
2.991	3.134	3.313
2.989	3.131	3.278
2.992	3.124	3.262
2.984	3.125	3.272
2.985	3.132	3.282
2.995	3.126	3.265
2.996	3.125	3.249
2.993	3.125	3.239
2.991	3.127	3.231
2.991	3.126	3.246
2.997	3.131	3.248
2.995	3.126	3.248
2.992	3.125	3.226
2.992	3.124	3.212
2.992	3.123	3.220
2.987	3.125	3.228
3.000	3.123	3.213
2.996	3.126	3.208
2.987	3.131	3.214
2.999	3.126	3.220
3.002	3.125	3.221
2.990	3.125	3.230
2.991	3.131	3.233
2.997	3.128	3.241
2.991	3.127	3.249
2.995	3.122	3.258
2.992	3.120	3.248
2.991	3.124	3.240
2.997	3.123	3.238
2.992	3.126	3.235
2.982	3.128	3.214
2.982	3.127	3.203
2.977	3.130	3.211
2.977	3.125	3.213
2.988	3.130	3.222
2.974	3.130	3.244
2.973	3.129	3.270
2.977	3.129	3.269
2.977	3.123	3.265
2.987	3.128	3.265
2.984	3.133	3.277
2.991	3.128	3.296
3.002	3.126	3.295
3.005	3.130	3.265
3.001	3.126	3.242
2.987	3.126	3.228
2.994	3.125	3.203
2.994	3.123	3.200
3.002	3.126	3.210
3.007	3.126	3.221
3.007	3.123	3.240
3.002	3.126	3.257
3.009	3.126	3.288
3.007	3.128	3.281
3.006	3.128	3.281
3.010	3.125	3.284
3.009	3.122	3.284
3.007	3.121	3.278
3.004	3.125	3.274
2.992	3.123	3.279
2.992	3.126	3.274
2.995	3.119	3.277
2.991	3.125	3.281
2.991	3.123	3.291
2.997	3.125	3.278
2.992	3.123	3.264
2.987	3.123	3.249
2.985	3.123	3.239
2.985	3.128	3.232
2.989	3.122	3.235
2.988	3.121	3.210
2.986	3.123	3.195
2.992	3.119	3.189
2.997	3.118	3.207
2.995	3.126	3.209
2.990	3.123	3.210
2.982	3.123	3.225
2.980	3.132	3.221
2.982	3.133	3.199
2.987	3.123	3.189
2.987	3.122	3.181
2.988	3.123	3.201
3.000	3.125	3.226
3.009	3.126	3.239
3.011	3.125	3.233
3.012	3.122	3.240
3.007	3.124	3.248
2.997	3.121	3.247
2.993	3.125	3.235
2.991	3.125	3.210
2.994	3.130	3.198
2.997	3.126	3.181
2.989	3.128	3.164
2.987	3.125	3.140
2.990	3.123	3.124
2.986	3.120	3.121
2.987	3.127	3.125
2.990	3.125	3.145
2.991	3.124	3.170
2.993	3.121	3.196
2.992	3.120	3.203
3.000	3.121	3.203
2.994	3.123	3.210
2.999	3.125	3.236
3.006	3.121	3.236
3.004	3.128	3.214
3.002	3.128	3.191
3.002	3.126	3.148
3.000	3.118	3.148
3.002	3.125	3.167
3.004	3.121	3.174
3.009	3.121	3.190
3.009	3.123	3.194
3.014	3.130	3.196
3.017	3.130	3.229
3.017	3.128	3.231
3.013	3.123	3.230
3.011	3.123	3.245
3.021	3.125	3.265
3.017	3.123	3.276
3.011	3.130	3.281
3.009	3.128	3.297
3.009	3.129	3.282
3.004	3.134	3.259
3.005	3.130	3.231
2.999	3.128	3.232
2.991	3.130	3.257
2.987	3.131	3.265
2.994	3.132	3.243
2.995	3.130	3.239
2.997	3.129	3.250
2.992	3.131	3.270
2.992	3.130	3.277
2.997	3.131	3.276
3.005	3.137	3.282
2.995	3.131	3.309
3.000	3.128	3.308
2.990	3.132	3.303
2.995	3.131	3.289
2.997	3.131	3.265
2.999	3.130	3.255
2.997	3.128	3.227
3.009	3.130	3.208
2.998	3.128	3.206
3.000	3.128	3.206
2.994	3.128	3.196
2.997	3.132	3.200
3.002	3.127	3.210
3.004	3.121	3.217
3.009	3.128	3.213
3.009	3.131	3.223
3.019	3.130	3.245
3.019	3.131	3.288
3.016	3.130	3.283
3.021	3.132	3.281
3.016	3.128	3.262
3.016	3.128	3.247
3.008	3.133	3.245
3.008	3.130	3.233
2.999	3.129	3.210
2.992	3.128	3.196
2.997	3.128	3.191
2.990	3.128	3.189
2.997	3.133	3.201
3.005	3.132	3.206
3.002	3.132	3.189
2.999	3.125	3.184
2.994	3.126	3.195
2.994	3.128	3.211
2.992	3.128	3.199
2.991	3.135	3.199
2.999	3.128	3.203
2.990	3.122	3.201
2.992	3.125	3.210
2.985	3.130	3.208
2.989	3.128	3.204
2.979	3.126	3.208
2.987	3.128	3.227
2.987	3.125	3.235
2.989	3.125	3.200
2.990	3.121	3.189
2.993	3.125	3.174
2.987	3.126	3.167
2.989	3.129	3.181
2.989	3.134	3.199
2.994	3.128	3.201
2.999	3.128	3.215
3.009	3.131	3.207
3.005	3.125	3.208
3.003	3.126	3.214
3.004	3.126	3.211
3.004	3.130	3.216
3.000	3.137	3.220
2.994	3.132	3.208
2.989	3.130	3.205
2.991	3.127	3.221
2.992	3.133	3.219
2.994	3.128	3.211
2.997	3.135	3.201
3.004	3.125	3.189
2.996	3.125	3.184
2.997	3.125	3.185
3.002	3.124	3.161
2.992	3.126	3.122
2.987	3.125	3.125
2.987	3.127	3.144
2.989	3.126	3.178
2.979	3.127	3.196
2.980	3.126	3.184
2.976	3.124	3.179
2.979	3.125	3.189
2.980	3.126	3.163
2.972	3.126	3.132
2.972	3.125	3.108
2.961	3.121	3.093
2.963	3.119	3.090
2.966	3.123	3.091
2.972	3.125	3.117
2.984	3.133	3.113
2.975	3.124	3.108
2.979	3.129	3.098
2.975	3.121	3.094
2.975	3.128	3.102
2.975	3.132	3.113
2.969	3.125	3.140
2.975	3.125	3.155
2.974	3.115	3.157
2.980	3.122	3.137
2.980	3.126	3.126
2.977	3.126	3.108
2.972	3.126	3.091
2.975	3.124	3.082
2.977	3.121	3.078
2.977	3.121	3.101
2.975	3.123	3.117
2.982	3.120	3.121
2.987	3.126	3.107
2.987	3.121	3.105
2.987	3.125	3.122
2.980	3.117	3.152
2.982	3.126	3.168
2.977	3.120	3.172
2.971	3.123	3.161
2.967	3.121	3.162
2.963	3.127	3.177
2.955	3.123	3.171
2.961	3.125	3.168
2.960	3.122	3.163
2.965	3.133	3.162
2.967	3.123	3.176
2.967	3.120	3.194
2.965	3.121	3.189
2.965	3.125	3.169
2.965	3.122	3.157
2.965	3.123	3.155
2.970	3.124	3.167
2.972	3.125	3.164
2.982	3.121	3.155
2.977	3.125	3.140
2.982	3.125	3.131
2.984	3.121	3.144
2.981	3.117	3.147
2.977	3.126	3.135
2.992	3.125	3.127
2.980	3.125	3.133
2.972	3.125	3.125
2.972	3.125	3.115
2.965	3.124	3.117
2.965	3.127	3.142
2.963	3.119	3.147
2.958	3.121	3.154
2.960	3.118	3.185
2.965	3.119	3.182
2.956	3.118	3.162
2.957	3.114	3.148
2.955	3.118	3.140
2.951	3.120	3.120
2.948	3.123	3.106
2.952	3.124	3.092
2.948	3.123	3.098
2.958	3.122	3.115
2.963	3.118	3.122
2.966	3.118	3.115
2.960	3.120	3.117
2.960	3.125	3.113
2.950	3.120	3.118
2.943	3.123	3.152
2.938	3.125	3.175
2.936	3.123	3.209
2.936	3.123	3.191
2.928	3.123	3.164
2.932	3.123	3.159
2.928	3.124	3.155
2.929	3.121	3.143
2.931	3.120	3.135
2.936	3.111	3.128
2.941	3.121	3.118
2.938	3.123	3.120
2.943	3.120	3.132
2.946	3.123	3.107
2.946	3.123	3.099
2.950	3.126	3.110
2.953	3.125	3.142
2.948	3.123	3.156
2.948	3.127	3.164
2.952	3.120	3.179
2.941	3.122	3.212
2.936	3.128	3.242
2.931	3.125	3.240
2.934	3.118	3.220
2.929	3.123	3.210
2.941	3.125	3.200
2.941	3.125	3.227
2.946	3.123	3.230
2.947	3.125	3.214
2.948	3.128	3.213
2.950	3.127	3.225
2.943	3.128	3.230
2.941	3.123	3.213
2.950	3.128	3.196
2.954	3.123	3.201
2.953	3.116	3.203
2.953	3.118	3.216
2.945	3.125	3.240
2.956	3.122	3.248
2.955	3.120	3.248
2.961	3.120	3.231
2.956	3.121	3.218
2.955	3.120	3.220
2.958	3.126	3.237
2.965	3.121	3.253
2.960	3.122	3.261
2.967	3.123	3.257
2.970	3.119	3.217
2.965	3.118	3.196
2.955	3.112	3.186
2.948	3.118	3.194
2.942	3.118	3.197
2.934	3.115	3.210
2.940	3.119	3.216
2.936	3.119	3.208
2.940	3.114	3.224
2.951	3.116	3.236
2.950	3.124	3.251
2.953	3.123	3.250
2.951	3.126	3.245
2.951	3.122	3.229
2.948	3.115	3.217
2.943	3.123	3.220
2.936	3.122	3.227
2.933	3.123	3.242
2.946	3.121	3.245
2.941	3.117	3.235
2.936	3.117	3.219
2.956	3.115	3.216
2.957	3.121	3.201
2.963	3.125	3.176
2.960	3.116	3.159
2.948	3.123	3.161
2.947	3.123	3.162
2.953	3.121	3.155
2.950	3.118	3.145
2.947	3.118	3.142
2.949	3.121	3.131
2.955	3.123	3.123
2.955	3.116	3.126
2.955	3.111	3.145
2.953	3.121	3.161
2.948	3.118	3.177
2.946	3.115	3.191
2.946	3.123	3.193
2.941	3.115	3.196
2.939	3.117	3.191
2.938	3.116	3.210
2.931	3.118	3.223
2.931	3.110	3.213
2.928	3.111	3.189
2.929	3.119	3.169
2.933	3.121	3.162
2.936	3.113	3.169
2.941	3.125	3.174
2.946	3.122	3.181
2.943	3.126	3.195
2.948	3.125	3.204
2.950	3.120	3.179
2.962	3.123	3.154
2.962	3.115	3.137
2.973	3.120	3.126
2.970	3.113	3.149
2.975	3.118	3.171
2.983	3.117	3.187
2.977	3.123	3.208
2.972	3.115	3.229
2.977	3.117	3.247
2.970	3.120	3.266
2.969	3.118	3.245
2.970	3.125	3.216
2.967	3.115	3.196
2.970	3.120	3.184
2.963	3.118	3.196
2.962	3.119	3.210
2.966	3.127	3.224
2.963	3.119	3.216
2.962	3.121	3.218
2.965	3.121	3.201
2.968	3.122	3.186
2.960	3.121	3.195
2.961	3.120	3.210
2.951	3.121	3.226
2.955	3.120	3.220
2.953	3.121	3.223
2.951	3.121	3.199
2.955	3.121	3.191
2.952	3.115	3.181
2.943	3.119	3.184
2.950	3.116	3.191
2.941	3.115	3.189
2.946	3.120	3.178
2.945	3.116	3.168
2.956	3.115	3.157
2.940	3.113	3.155
2.952	3.119	3.164
2.954	3.118	3.193
2.959	3.117	3.224
2.957	3.116	3.241
2.960	3.116	3.263
2.958	3.116	3.265
2.960	3.111	3.255
2.958	3.118	3.262
2.955	3.112	3.257
2.953	3.126	3.239
2.951	3.118	3.230
2.956	3.116	3.231
2.955	3.112	3.231
2.958	3.118	3.229
2.963	3.116	3.217
2.955	3.114	3.209
2.956	3.118	3.200
2.950	3.121	3.196
2.943	3.120	3.196
2.945	3.120	3.196
2.953	3.118	3.191
2.952	3.118	3.173
2.957	3.116	3.180
2.946	3.118	3.204
2.951	3.113	3.225
2.956	3.115	3.266
2.963	3.118	3.289
2.958	3.124	3.287
2.957	3.114	3.286
2.957	3.115	3.284
2.954	3.111	3.289
2.961	3.115	3.290
2.958	3.115	3.299
2.957	3.111	3.298
2.956	3.110	3.302
2.957	3.115	3.285
2.958	3.112	3.277
2.958	3.115	3.267
2.963	3.112	3.247
2.966	3.112	3.233
2.967	3.115	3.221
2.977	3.118	3.218
2.975	3.117	3.245
2.975	3.115	3.247
2.975	3.118	3.255
2.980	3.118	3.256
2.976	3.115	3.265
2.970	3.125	3.262
2.965	3.112	3.253
2.962	3.120	3.257
2.955	3.112	3.263
2.950	3.112	3.260
2.948	3.117	3.245
2.950	3.114	3.225
2.953	3.114	3.219
2.955	3.120	3.233
2.962	3.124	3.246
2.959	3.115	3.245
2.965	3.111	3.230
2.963	3.112	3.228
2.970	3.120	3.245
2.973	3.115	3.267
2.972	3.115	3.271
2.975	3.113	3.263
2.975	3.111	3.247
2.976	3.111	3.230
2.972	3.106	3.210
2.970	3.111	3.211
2.965	3.113	3.220
2.967	3.115	3.234
2.970	3.110	3.228
2.965	3.111	3.231
2.965	3.112	3.226
2.967	3.113	3.223
2.970	3.108	3.203
2.968	3.118	3.194
2.967	3.118	3.210
2.965	3.115	3.220
2.958	3.118	3.212
2.965	3.115	3.213
2.967	3.120	3.203
2.970	3.118	3.190
2.965	3.119	3.167
2.962	3.116	3.169
2.955	3.121	3.175
2.953	3.114	3.189
2.955	3.118	3.214
2.950	3.110	3.230
2.956	3.109	3.245
2.955	3.117	3.258
2.945	3.117	3.281
2.943	3.117	3.281
2.939	3.118	3.272
2.944	3.123	3.265
2.948	3.116	3.282
2.941	3.118	3.296
2.946	3.115	3.286
2.948	3.117	3.298
2.955	3.116	3.314
2.960	3.115	3.316
2.962	3.121	3.301
2.960	3.117	3.292
2.951	3.122	3.281
2.958	3.121	3.291
2.963	3.119	3.301
2.958	3.121	3.308
2.967	3.126	3.311
2.972	3.123	3.298
2.970	3.120	3.277
2.964	3.120	3.249
2.974	3.116	3.233
2.973	3.118	3.238
2.968	3.116	3.240
2.967	3.121	3.242
2.967	3.114	3.247
2.968	3.110	3.248
2.974	3.123	3.248
2.982	3.120	3.240
2.987	3.117	3.240
2.993	3.117	3.230
2.989	3.113	3.229
2.985	3.116	3.230
2.985	3.121	3.227
2.987	3.120	3.220
2.980	3.110	3.206
2.977	3.112	3.190
2.975	3.114	3.176
2.963	3.113	3.174
2.960	3.116	3.176
2.954	3.112	3.179
2.960	3.113	3.174
2.960	3.113	3.176
2.965	3.118	3.170
2.967	3.110	3.174
2.972	3.114	3.165
2.963	3.115	3.167
2.955	3.108	3.174
2.957	3.108	3.181
2.954	3.113	3.203
2.957	3.107	3.205
2.960	3.110	3.208
2.964	3.108	3.233
2.953	3.110	3.243
2.952	3.108	3.232
2.948	3.111	3.205
2.954	3.110	3.194
2.951	3.110	3.196
2.955	3.107	3.201
2.955	3.111	3.201
2.955	3.118	3.201
2.948	3.114	3.216
2.955	3.118	3.243
2.952	3.116	3.240
2.957	3.117	3.243
2.953	3.110	3.243
2.965	3.113	3.238
2.959	3.108	3.229
2.967	3.112	3.231
2.963	3.118	3.250
2.965	3.115	3.252
2.962	3.118	3.251
2.962	3.113	3.261
2.955	3.115	3.247
2.956	3.110	3.228
2.964	3.117	3.205
2.957	3.123	3.203
2.958	3.123	3.199
2.967	3.115	3.205
2.962	3.117	3.261
2.960	3.118	3.292
2.967	3.117	3.299
2.960	3.123	3.298
2.956	3.118	3.295
2.956	3.124	3.280
2.947	3.122	3.279
2.953	3.123	3.265
2.945	3.117	3.259
2.952	3.120	3.257
2.953	3.118	3.229
2.955	3.123	3.210
2.955	3.119	3.206
2.956	3.115	3.210
2.955	3.117	3.220
2.952	3.118	3.213
2.955	3.116	3.203
2.950	3.118	3.195
2.953	3.117	3.181
2.950	3.122	3.171
2.953	3.111	3.169
2.957	3.113	3.178
2.960	3.116	3.199
2.954	3.116	3.203
2.947	3.125	3.177
2.948	3.115	3.166
2.941	3.115	3.162
2.940	3.115	3.162
2.941	3.113	3.187
2.945	3.110	3.196
2.938	3.109	3.193
2.948	3.107	3.176
2.946	3.101	3.172
2.944	3.109	3.172
2.943	3.113	3.154
2.941	3.109	3.139
2.938	3.113	3.133
2.950	3.111	3.142
2.952	3.115	3.179
2.955	3.115	3.192
2.951	3.110	3.208
2.950	3.109	3.194
2.952	3.118	3.190
2.953	3.113	3.176
2.946	3.119	3.164
2.943	3.113	3.166
2.955	3.110	3.173
2.955	3.111	3.160
2.955	3.116	3.135
2.953	3.110	3.130
2.954	3.108	3.128
2.942	3.108	3.120
2.941	3.115	3.122
2.936	3.110	3.118
2.931	3.109	3.132
2.939	3.118	3.164
2.945	3.109	3.197
2.955	3.110	3.226
2.959	3.113	3.254
2.956	3.113	3.269
2.960	3.112	3.265
2.972	3.118	3.245
2.970	3.117	3.216
2.972	3.110	3.209
2.965	3.118	3.207
2.969	3.115	3.218
2.974	3.115	3.225
2.968	3.118	3.225
2.968	3.119	3.218
2.969	3.112	3.235
2.969	3.115	3.250
2.970	3.115	3.247
2.967	3.111	3.231
2.968	3.116	3.230
2.967	3.110	3.205
2.967	3.115	3.177
2.965	3.105	3.167
2.971	3.110	3.165
2.970	3.116	3.169
2.972	3.111	3.179
2.977	3.114	3.193
2.980	3.108	3.213
2.980	3.106	3.240
2.984	3.115	3.239
2.986	3.111	3.228
3.000	3.108	3.222
2.993	3.112	3.235
2.995	3.115	3.234
2.982	3.113	3.230
2.980	3.116	3.210
2.977	3.108	3.184
2.968	3.114	3.164
2.975	3.114	3.160
2.975	3.110	3.167
2.980	3.113	3.175
2.978	3.118	3.184
2.974	3.119	3.208
2.980	3.115	3.223
2.987	3.120	3.238
2.989	3.114	3.262
2.982	3.111	3.270
2.972	3.112	3.267
2.977	3.113	3.268
2.975	3.116	3.291
2.977	3.117	3.298
2.968	3.112	3.303
2.965	3.115	3.304
2.963	3.106	3.297
2.967	3.116	3.277
2.963	3.113	3.265
2.962	3.110	3.257
2.967	3.110	3.261
2.968	3.117	3.260
2.969	3.108	3.248
2.966	3.113	3.252
2.975	3.116	3.255
2.968	3.118	3.232
2.972	3.111	3.206
2.970	3.112	3.191
2.972	3.116	3.206
2.977	3.118	3.225
2.968	3.118	3.224
2.963	3.113	3.227
2.955	3.112	3.234
2.955	3.111	3.248
2.967	3.111	3.250
2.969	3.106	3.257
2.972	3.111	3.281
2.965	3.115	3.290
2.962	3.124	3.318
2.961	3.118	3.350
2.969	3.110	3.328
2.961	3.112	3.318
2.967	3.118	3.303
2.970	3.115	3.303
2.970	3.115	3.294
2.967	3.112	3.270
2.960	3.110	3.228
2.960	3.116	3.208
2.965	3.121	3.198
2.959	3.115	3.225
2.963	3.121	3.239
2.955	3.121	3.243
2.970	3.118	3.242
2.972	3.120	3.257
2.975	3.125	3.286
2.975	3.120	3.310
2.982	3.123	3.329
2.980	3.120	3.330
2.980	3.118	3.316
2.977	3.121	3.281
2.981	3.116	3.274
2.975	3.116	3.279
2.969	3.121	3.262
2.967	3.113	3.240
2.965	3.124	3.236
2.970	3.116	3.226
2.966	3.114	3.210
2.971	3.116	3.198
2.976	3.110	3.201
2.977	3.114	3.196
2.977	3.110	3.196
2.982	3.118	3.191
2.983	3.116	3.199
2.980	3.113	3.214
2.975	3.110	3.217
2.976	3.115	3.223
2.966	3.108	3.208
2.966	3.115	3.186
2.960	3.115	3.186
2.962	3.115	3.171
2.965	3.113	3.140
2.980	3.115	3.125
2.977	3.115	3.120
2.975	3.117	3.106
2.975	3.116	3.110
2.970	3.117	3.122
2.970	3.115	3.113
2.972	3.110	3.117
2.975	3.113	3.122
2.974	3.112	3.125
2.970	3.110	3.127
2.968	3.110	3.122
2.970	3.116	3.118
2.973	3.115	3.118
2.976	3.115	3.113
2.975	3.108	3.109
2.975	3.115	3.107
2.967	3.115	3.130
2.965	3.117	3.135
2.967	3.121	3.140
2.965	3.110	3.152
2.972	3.113	3.152
2.971	3.115	3.151
2.968	3.108	3.151
2.964	3.105	3.139
2.967	3.106	3.142
2.972	3.108	3.156
2.975	3.108	3.194
2.972	3.108	3.198
2.967	3.109	3.192
2.967	3.109	3.186
2.975	3.118	3.181
2.983	3.119	3.173
2.980	3.118	3.157
2.985	3.116	3.157
2.997	3.121	3.168
2.987	3.110	3.171
2.992	3.109	3.163
2.989	3.118	3.167
2.985	3.118	3.178
2.985	3.115	3.193
2.993	3.113	3.203
2.999	3.111	3.200
2.991	3.111	3.199
2.992	3.110	3.182
2.984	3.116	3.188
2.992	3.111	3.187
3.001	3.108	3.186
3.009	3.110	3.210
3.010	3.111	3.225
3.005	3.106	3.237
3.003	3.110	3.231
2.999	3.115	3.213
2.995	3.116	3.211
2.991	3.111	3.208
2.997	3.111	3.191
2.991	3.116	3.169
2.989	3.116	3.160
2.990	3.108	3.152
2.987	3.113	3.153
2.981	3.110	3.168
2.975	3.110	3.177
2.977	3.111	3.203
2.980	3.115	3.215
2.980	3.111	3.214
2.985	3.113	3.201
2.982	3.111	3.196
2.985	3.108	3.185
2.988	3.111	3.177
2.977	3.113	3.194
2.980	3.111	3.204
2.968	3.108	3.208
2.965	3.108	3.221
2.965	3.111	3.238
2.972	3.112	3.250
2.980	3.113	3.252
2.985	3.110	3.243
2.986	3.111	3.233
2.991	3.112	3.248
2.992	3.114	3.255
2.984	3.113	3.256
2.975	3.115	3.265
2.975	3.115	3.287
2.977	3.118	3.294
2.982	3.116	3.276
2.980	3.119	3.253
2.980	3.123	3.238
2.984	3.120	3.213
2.982	3.123	3.201
2.977	3.121	3.194
2.980	3.124	3.189
2.984	3.124	3.196
2.982	3.122	3.215
2.977	3.117	3.218
2.972	3.121	3.221
2.966	3.125	3.221
2.970	3.125	3.222
2.970	3.115	3.230
2.972	3.120	3.235
2.975	3.115	3.271
2.975	3.118	3.282
2.981	3.118	3.294
2.985	3.122	3.308
2.987	3.118	3.340
2.986	3.120	3.350
2.988	3.118	3.351
2.979	3.121	3.353
2.975	3.118	3.330
2.977	3.119	3.298
2.975	3.125	3.252
2.976	3.116	3.243
2.980	3.117	3.252
2.982	3.115	3.264
2.990	3.121	3.281
2.999	3.123	3.291
3.002	3.124	3.294
3.004	3.121	3.295
2.991	3.123	3.294
3.002	3.123	3.299
3.004	3.115	3.292
3.009	3.123	3.276
3.004	3.123	3.281
2.996	3.120	3.274
2.994	3.123	3.248
2.992	3.126	3.233
2.989	3.120	3.230
2.992	3.117	3.250
2.999	3.126	3.272
3.001	3.127	3.301
3.007	3.114	3.330
3.000	3.115	3.357
3.001	3.118	3.351
2.992	3.119	3.335
2.991	3.118	3.312
2.997	3.118	3.297
2.994	3.119	3.287
3.001	3.118	3.277
3.001	3.115	3.261
3.007	3.119	3.242
3.005	3.120	3.233
3.000	3.122	3.255
3.000	3.123	3.271
3.002	3.122	3.279
3.000	3.115	3.278
3.005	3.121	3.281
3.009	3.121	3.289
3.016	3.121	3.297
3.013	3.123	3.311
3.010	3.120	3.318
3.001	3.118	3.320
2.995	3.116	3.300
3.000	3.122	3.289
3.004	3.119	3.282
3.007	3.119	3.274
3.009	3.121	3.271
3.006	3.120	3.284
3.009	3.123	3.269
3.009	3.121	3.274
3.010	3.120	3.287
3.012	3.118	3.303
3.009	3.118	3.313
3.014	3.117	3.313
3.010	3.118	3.311
3.009	3.117	3.320
3.015	3.121	3.337
3.024	3.119	3.333
3.029	3.121	3.325
3.027	3.123	3.322
3.019	3.120	3.316
3.024	3.123	3.303
3.029	3.118	3.288
3.034	3.122	3.296
3.036	3.123	3.301
3.036	3.125	3.291
3.031	3.126	3.307
3.034	3.123	3.324
3.032	3.126	3.330
3.026	3.124	3.330
3.034	3.125	3.339
3.031	3.125	3.366
3.032	3.123	3.384
3.036	3.120	3.371
3.028	3.115	3.365
3.031	3.115	3.335
3.031	3.118	3.281
3.030	3.120	3.248
3.024	3.124	3.225
3.016	3.122	3.223
3.014	3.122	3.248
3.022	3.115	3.265
3.016	3.113	3.269
3.016	3.121	3.270
3.014	3.123	3.263
3.017	3.123	3.260
3.017	3.125	3.259
3.010	3.123	3.265
3.014	3.115	3.257
3.017	3.115	3.245
3.017	3.123	3.241
3.016	3.123	3.228
3.009	3.122	3.231
3.007	3.116	3.210
3.004	3.120	3.194
3.017	3.125	3.188
3.016	3.120	3.186
3.014	3.121	3.218
3.019	3.123	3.240
3.010	3.130	3.232
3.009	3.117	3.221
3.009	3.120	3.210
3.004	3.120	3.207
2.999	3.120	3.196
3.005	3.125	3.172
3.006	3.119	3.171
3.002	3.106	3.188
2.997	3.123	3.217
2.993	3.123	3.211
3.004	3.116	3.191
3.011	3.113	3.181
3.017	3.115	3.192
3.022	3.118	3.207
3.022	3.123	3.213
3.020	3.118	3.199
3.014	3.118	3.194
3.007	3.114	3.193
3.000	3.119	3.167
2.999	3.114	3.150
3.005	3.118	3.157
3.002	3.115	3.160
3.002	3.118	3.154
3.010	3.113	3.140
3.004	3.112	3.120
3.008	3.120	3.110
3.007	3.121	3.108
3.007	3.115	3.111
3.009	3.116	3.120
3.021	3.116	3.125
3.019	3.121	3.109
3.026	3.114	3.103
3.029	3.123	3.136
3.023	3.115	3.142
3.015	3.115	3.125
3.016	3.116	3.108
3.015	3.115	3.093
3.024	3.112	3.090
3.023	3.118	3.074
3.014	3.123	3.066
3.007	3.121	3.070
3.012	3.115	3.091
3.010	3.117	3.071
3.008	3.124	3.071
3.009	3.115	3.074
3.007	3.120	3.093
3.009	3.115	3.106
2.999	3.123	3.096
2.992	3.118	3.092
2.987	3.120	3.114
2.985	3.117	3.136
2.984	3.121	3.154
2.982	3.118	3.162
2.985	3.121	3.171
2.990	3.112	3.172
2.989	3.115	3.162
2.989	3.115	3.172
2.982	3.113	3.169
2.980	3.116	3.164
2.983	3.118	3.157
2.984	3.118	3.157
2.978	3.120	3.150
2.980	3.118	3.135
2.982	3.122	3.117
2.980	3.113	3.126
2.977	3.110	3.131
2.979	3.115	3.160
2.977	3.119	3.172
2.983	3.115	3.152
2.978	3.122	3.151
2.969	3.118	3.167
2.977	3.120	3.169
2.975	3.118	3.166
2.977	3.118	3.160
2.972	3.117	3.167
2.979	3.113	3.169
2.982	3.110	3.177
2.978	3.116	3.178
2.971	3.114	3.187
2.980	3.116	3.194
2.983	3.113	3.187
2.987	3.112	3.189
2.977	3.113	3.203
2.974	3.110	3.195
2.980	3.118	3.177
2.977	3.118	3.161
2.973	3.108	3.147
2.972	3.111	3.144
2.981	3.121	3.152
2.982	3.113	3.144
2.977	3.118	3.148
2.975	3.116	3.151
2.977	3.114	3.167
2.977	3.118	3.176
2.977	3.121	3.196
2.975	3.113	3.210
2.973	3.113	3.223
2.971	3.105	3.227
2.977	3.111	3.215
2.977	3.108	3.208
2.975	3.105	3.184
2.972	3.108	3.159
2.958	3.114	3.158
2.965	3.115	3.159
2.971	3.111	3.179
2.971	3.113	3.177
2.967	3.113	3.177
2.970	3.109	3.204
2.970	3.113	3.204
2.967	3.113	3.196
2.960	3.115	3.206
2.965	3.116	3.228
2.965	3.108	3.243
2.967	3.108	3.259
2.962	3.114	3.273
2.965	3.110	3.285
2.962	3.106	3.292
2.962	3.115	3.289
2.960	3.113	3.271
2.972	3.116	3.269
2.972	3.118	3.272
2.980	3.117	3.282
2.978	3.115	3.294
2.973	3.115	3.298
2.966	3.115	3.279
2.970	3.113	3.271
2.972	3.110	3.259
2.972	3.114	3.239
2.972	3.117	3.196
2.975	3.112	3.177
2.975	3.108	3.180
2.975	3.112	3.203
2.979	3.110	3.213
2.976	3.113	3.231
2.977	3.113	3.245
2.975	3.118	3.235
2.984	3.115	3.245
2.987	3.113	3.238
2.994	3.114	3.223
2.991	3.117	3.213
3.000	3.116	3.206
2.999	3.115	3.199
2.998	3.120	3.204
2.997	3.115	3.205
3.004	3.120	3.223
3.000	3.118	3.225
3.002	3.118	3.230
3.002	3.119	3.245
2.997	3.115	3.227
2.990	3.115	3.203
2.990	3.115	3.196
2.992	3.111	3.204
2.995	3.113	3.228
2.997	3.115	3.230
2.991	3.118	3.223
2.991	3.112	3.202
2.991	3.126	3.204
2.995	3.121	3.223
2.997	3.125	3.243
3.001	3.122	3.264
2.991	3.115	3.264
2.992	3.123	3.262
2.987	3.116	3.253
2.994	3.121	3.246
2.994	3.119	3.240
2.994	3.113	3.227
2.997	3.120	3.228
3.004	3.118	3.231
3.004	3.123	3.231
3.001	3.118	3.248
3.007	3.123	3.272
3.002	3.120	3.281
3.002	3.121	3.283
2.994	3.120	3.274
2.992	3.124	3.270
2.989	3.127	3.274
2.990	3.124	3.279
2.983	3.118	3.288
2.983	3.115	3.291
2.987	3.117	3.287
2.987	3.121	3.282
2.987	3.123	3.279
2.990	3.123	3.272
2.992	3.122	3.265
2.999	3.123	3.263
3.009	3.118	3.269
3.010	3.125	3.279
3.014	3.123	3.279
3.009	3.127	3.297
3.007	3.133	3.295
3.007	3.125	3.272
3.007	3.118	3.228
3.009	3.123	3.204
2.997	3.123	3.189
2.999	3.125	3.199
3.001	3.122	3.211
2.993	3.120	3.208
2.999	3.120	3.208
3.002	3.121	3.203
3.002	3.127	3.194
3.006	3.119	3.210
2.997	3.118	3.239
3.004	3.123	3.265
3.014	3.123	3.297
3.017	3.123	3.289
3.017	3.125	3.277
3.016	3.125	3.265
3.021	3.125	3.264
3.017	3.124	3.249
3.014	3.125	3.231
3.019	3.125	3.203
3.026	3.125	3.188
3.021	3.124	3.180
3.021	3.125	3.177
3.020	3.125	3.178
3.018	3.123	3.184
3.021	3.123	3.184
3.020	3.123	3.201
3.014	3.128	3.199
3.014	3.123	3.210
3.009	3.122	3.231
3.009	3.124	3.227
3.009	3.125	3.210
3.009	3.126	3.209
3.006	3.124	3.201
3.000	3.121	3.190
3.000	3.115	3.186
2.997	3.118	3.196
3.002	3.121	3.176
3.009	3.126	3.169
3.012	3.123	3.180
3.010	3.121	3.193
3.002	3.120	3.206
3.002	3.123	3.218
3.002	3.128	3.233
3.009	3.124	3.239
3.009	3.126	3.233
3.012	3.122	3.249
3.009	3.121	3.249
3.017	3.126	3.259
3.009	3.130	3.264
3.012	3.123	3.294
3.012	3.125	3.301
3.014	3.121	3.294
3.017	3.122	3.278
3.017	3.124	3.263
3.010	3.118	3.267
3.011	3.122	3.264
3.012	3.122	3.270
3.004	3.125	3.274
3.001	3.120	3.274
2.997	3.121	3.270
3.002	3.122	3.268
3.012	3.126	3.271
3.006	3.123	3.278
3.008	3.118	3.288
3.009	3.115	3.305
3.009	3.125	3.303
3.009	3.121	3.288
3.017	3.123	3.274
3.012	3.128	3.267
3.017	3.124	3.268
3.012	3.122	3.263
3.014	3.115	3.265
3.022	3.116	3.269
3.022	3.121	3.267
3.014	3.120	3.259
3.006	3.127	3.250
3.019	3.123	3.248
3.003	3.126	3.233
3.005	3.118	3.245
3.000	3.126	3.262
2.995	3.120	3.262
2.997	3.124	3.250
2.996	3.119	3.235
2.989	3.121	3.223
2.994	3.125	3.194
2.998	3.123	3.173
2.997	3.121	3.173
3.000	3.118	3.176
2.997	3.123	3.189
2.995	3.123	3.199
2.993	3.118	3.201
2.997	3.120	3.211
2.987	3.118	3.218
2.992	3.121	3.232
2.998	3.117	3.233
3.001	3.121	3.228
3.004	3.115	3.223
3.002	3.118	3.230
2.994	3.122	3.241
2.991	3.122	3.255
2.985	3.120	3.291
2.985	3.118	3.294
2.987	3.115	3.275
2.987	3.113	3.253
2.986	3.116	3.252
2.984	3.121	3.253
2.987	3.118	3.257
2.984	3.121	3.272
2.987	3.123	3.282
2.992	3.127	3.287
2.989	3.126	3.263
2.987	3.121	3.255
2.989	3.123	3.242
2.992	3.121	3.228
2.992	3.115	3.211
2.992	3.123	3.211
2.992	3.123	3.228
2.983	3.123	3.246
2.982	3.127	3.252
2.987	3.113	3.257
2.993	3.125	3.267
2.991	3.126	3.281
2.995	3.126	3.284
2.992	3.125	3.265
2.991	3.118	3.238
2.992	3.125	3.237
2.987	3.130	3.230
2.984	3.125	3.197
2.987	3.125	3.176
2.985	3.124	3.176
3.000	3.119	3.181
2.991	3.122	3.181
2.994	3.122	3.188
2.997	3.123	3.198
2.992	3.125	3.241
2.999	3.126	3.265
2.997	3.126	3.269
2.994	3.123	3.256
2.995	3.120	3.221
3.001	3.121	3.205
3.009	3.118	3.204
3.007	3.117	3.194
3.004	3.119	3.176
2.994	3.120	3.163
2.992	3.123	3.191
2.994	3.126	3.196
2.992	3.118	3.208
2.992	3.123	3.210
2.993	3.115	3.208
2.988	3.125	3.191
2.984	3.124	3.208
2.992	3.121	3.231
2.992	3.126	3.229
2.994	3.121	3.237
2.997	3.124	3.248
2.994	3.121	3.242
2.993	3.120	3.246
2.990	3.121	3.251
2.991	3.121	3.238
3.004	3.127	3.238
3.004	3.118	3.240
3.009	3.123	3.233
2.999	3.123	3.230
3.004	3.118	3.214
3.002	3.127	3.210
2.997	3.128	3.228
3.011	3.127	3.238
3.012	3.125	3.238
3.007	3.121	3.232
3.004	3.125	3.228
2.997	3.126	3.221
2.994	3.121	3.208
3.001	3.117	3.194
2.992	3.125	3.189
3.000	3.127	3.177
2.993	3.120	3.165
2.995	3.122	3.160
3.002	3.126	3.178
3.005	3.130	3.192
3.014	3.126	3.231
3.012	3.117	3.242
3.015	3.120	3.262
3.019	3.121	3.287
3.021	3.121	3.294
3.017	3.120	3.308
3.011	3.115	3.313
3.014	3.124	3.289
3.019	3.125	3.262
3.018	3.121	3.243
3.026	3.124	3.240
3.024	3.127	3.247
3.026	3.117	3.230
3.031	3.117	3.231
3.037	3.126	3.243
3.030	3.123	3.264
3.027	3.126	3.284
3.019	3.117	3.281
3.011	3.122	3.261
3.011	3.121	3.248
3.015	3.125	3.230
3.016	3.125	3.213
3.009	3.123	3.203
3.015	3.119	3.208
3.009	3.127	3.203
3.009	3.123	3.209
3.009	3.126	3.215
3.021	3.125	3.228
3.024	3.126	3.250
3.030	3.126	3.257
3.036	3.128	3.244
3.031	3.121	3.231
3.029	3.123	3.218
3.034	3.123	3.223
3.026	3.125	3.257
3.022	3.126	3.276
3.021	3.127	3.282
3.021	3.122	3.277
3.011	3.128	3.269
3.014	3.125	3.262
3.014	3.126	3.244
3.025	3.122	3.244
3.027	3.123	3.252
3.029	3.120	3.248
3.031	3.126	3.250
3.024	3.130	3.265
3.029	3.125	3.266
3.035	3.126	3.266
3.034	3.124	3.267
3.029	3.128	3.265
3.030	3.125	3.265
3.024	3.126	3.265
3.024	3.125	3.252
3.024	3.120	3.223
3.017	3.122	3.211
3.014	3.125	3.228
3.016	3.125	3.243
3.009	3.123	3.233
3.009	3.125	3.203
3.010	3.131	3.192
3.010	3.132	3.196
3.012	3.119	3.210
3.016	3.125	3.230
3.022	3.128	3.252
3.024	3.123	3.262
3.016	3.125	3.264
3.009	3.126	3.248
3.014	3.125	3.240
3.012	3.125	3.235
3.007	3.131	3.222
3.007	3.128	3.200
3.007	3.128	3.204
3.008	3.127	3.209
3.007	3.123	3.205
3.011	3.124	3.201
3.016	3.128	3.205
3.019	3.128	3.231
3.022	3.121	3.252
3.016	3.123	3.289
3.014	3.126	3.303
3.014	3.125	3.306
3.019	3.124	3.300
3.012	3.125	3.289
3.009	3.134	3.274
3.009	3.127	3.265
3.009	3.126	3.243
3.002	3.125	3.238
2.994	3.130	3.235
2.994	3.120	3.224
3.009	3.121	3.230
3.007	3.125	3.233
3.011	3.125	3.236
3.009	3.122	3.248
3.014	3.121	3.255
3.010	3.125	3.257
3.005	3.126	3.280
2.999	3.127	3.294
2.994	3.127	3.288
2.992	3.120	3.272
2.991	3.125	3.260
2.992	3.125	3.266
2.991	3.125	3.265
2.992	3.125	3.255
2.992	3.124	3.274
2.992	3.120	3.292
2.999	3.121	3.329
3.002	3.126	3.326
3.001	3.125	3.310
2.998	3.126	3.303
3.002	3.127	3.282
3.001	3.127	3.262
3.009	3.121	3.248
3.009	3.123	3.227
3.007	3.123	3.223
3.007	3.125	3.216
2.999	3.121	3.208
2.997	3.120	3.210
3.000	3.118	3.224
2.997	3.125	3.243
3.007	3.122	3.256
3.000	3.126	3.258
2.999	3.124	3.265
3.015	3.122	3.271
3.009	3.120	3.260
3.007	3.123	3.240
3.002	3.120	3.235
3.007	3.123	3.214
3.006	3.126	3.197
3.008	3.125	3.188
3.007	3.125	3.195
3.002	3.117	3.193
2.993	3.123	3.191
2.987	3.123	3.184
2.990	3.125	3.198
2.989	3.128	3.229
2.988	3.123	3.255
2.992	3.123	3.272
2.994	3.123	3.281
2.994	3.126	3.282
2.992	3.131	3.287
2.990	3.125	3.294
2.987	3.125	3.281
